%OpenBCI Raw EXG Data
%Number of channels = 16
%Sample Rate = 125 Hz
%Signal Stage = raw
%Timestamp Source = host logger reception time.time Unix seconds; not device acquisition time
%Montage = unknown; runtime electrode positions not verified
%Board = OpenBCI_GUI$BoardCytonSerialDaisy
Sample Index,EXG Channel 0,EXG Channel 1,EXG Channel 2,EXG Channel 3,EXG Channel 4,EXG Channel 5,EXG Channel 6,EXG Channel 7,EXG Channel 8,EXG Channel 9,EXG Channel 10,EXG Channel 11,EXG Channel 12,EXG Channel 13,EXG Channel 14,EXG Channel 15,Accel Channel 0,Accel Channel 1,Accel Channel 2,Other,Other.1,Other.2,Other.3,Other.4,Other.5,Other.6,Analog Channel 0,Analog Channel 1,Analog Channel 2,Timestamp,Other.7,Timestamp (Formatted),Annotations
0,3.7948296948888034,6.685281431152598,2.5838434004631505,4.646972611946525,3.2171102196434607,8.2623909285766,5.389257768098646,10.227871719771755,10.105326741906982,9.293753997075967,2.5221849002536763,8.672711988090219,10.357989763022696,11.056462857589855,6.337479638169202,9.704252501661967,0,0,0,0,0,0,0,0,0,0,0,0,0,1789524403.4940531,0,2026-09-15T23:06:43.494,
1,11.470623263588221,12.32375062888668,18.267723484880314,12.987660829520095,15.628203527895817,18.68450929956705,14.575983716113772,16.27681213516377,17.217950939788743,17.34187844663823,13.728507614137435,17.87424521983009,21.953298748249885,13.455107014934946,20.882971516483146,18.859606213778907,0,0,0,0,0,0,0,0,0,0,0,0,0,1789524403.5022604,0,2026-09-15T23:06:43.502,
2,16.762167666810576,24.943215738922156,21.457214916601654,15.773796516256951,19.76891115767826,21.421355441594663,19.242882137880777,21.94775114121162,19.760982608117185,21.995426468168983,24.313988659044774,17.947752379103388,20.53208801403228,18.452371296674308,20.115524117834855,16.035517464134518,0,0,0,0,0,0,0,0,0,0,0,0,0,1789524403.5104706,0,2026-09-15T23:06:43.510,
3,18.247884663303765,19.33408426444996,22.50552013023425,23.081411036936167,15.462051280840715,16.78650868238637,20.800520985577556,12.52428478416568,16.70703145446329,17.353963751688802,20.9215780557335,18.680129685628522,15.049699436750943,14.304537173215907,13.999676145609703,18.623587597345463,0,0,0,0,0,0,0,0,0,0,0,0,0,1789524403.5186656,0,2026-09-15T23:06:43.518,
4,16.812466221601788,16.615092435783083,17.944325711896095,15.818028552239584,14.818412171618617,11.23717111897506,13.656377714458133,11.417736126050539,15.254088374420133,12.675801407683432,9.562642643004507,10.520728901103489,6.3428823985541145,9.336718962779791,4.957599061282217,5.497773354255733,0,0,0,0,0,0,0,0,0,0,0,0,0,1789524403.5268495,0,2026-09-15T23:06:43.526,
5,9.447557612714572,13.198646100527395,5.863274582585751,3.5290866472145073,7.374080986731375,4.1930756406945555,5.951197097483176,10.728469489746288,0.011495127049836462,-0.8669443957363243,0.11360992932734526,-0.5281944227872255,-4.029679377222788,-5.59158873405675,-4.311483330782556,-6.267750425642356,0,0,0,0,0,0,0,0,0,0,0,0,0,1789524403.5350337,0,2026-09-15T23:06:43.535,
6,3.3178446999231284,4.492435984626967,3.110372328399565,-1.9076434755610596,0.2769153931563386,-4.830997128999265,-1.0779994865370082,-5.122147511584298,-7.094571596386407,-10.740749380369461,-10.859322070859,-17.951338539871543,-16.714459760254197,-13.49085315086197,-22.11146976819881,-14.210735236399348,0,0,0,0,0,0,0,0,0,0,0,0,0,1789524403.5432417,0,2026-09-15T23:06:43.543,
7,-6.744825536680382,-1.2302456715127192,-7.995529808984477,-5.025517800666175,-8.798743589675356,-15.538391755559847,-8.806380977138643,-9.727877929409148,-15.607679573516409,-17.433666800433205,-18.125425426610974,-21.4270011050254,-15.874675501076759,-21.274420809764333,-20.076243420938482,-22.378310093685453,0,0,0,0,0,0,0,0,0,0,0,0,0,1789524403.5514746,0,2026-09-15T23:06:43.551,
8,-11.06981651159034,-14.970687784717263,-9.169911290245702,-15.041635268046258,-13.133574841231102,-17.238494553116922,-20.388034035527028,-20.077346674939612,-21.32643816608247,-19.919300707657534,-21.11158997184265,-20.672800042583678,-23.443356829073227,-21.016067500628395,-12.683651882297779,-18.484351601323702,0,0,0,0,0,0,0,0,0,0,0,0,0,1789524403.559682,0,2026-09-15T23:06:43.559,
9,-18.572546218386265,-15.874579512315213,-13.8747244506508,-23.38320323334669,-20.271310559327585,-21.856692230370154,-25.24359299154764,-17.440964886798596,-19.091462081567606,-17.88221551644258,-19.143492927377068,-14.045912366525041,-15.308834167035743,-12.184414671339749,-12.959855858578845,-11.010799334318143,0,0,0,0,0,0,0,0,0,0,0,0,0,1789524403.5678992,0,2026-09-15T23:06:43.567,
10,-15.163840214447443,-21.294349008373704,-19.123379815008914,-19.943665330591674,-20.63106838495203,-19.928519858329068,-15.260285349536295,-16.47484884494221,-14.145273063087656,-11.48478939686193,-5.662072251673749,-4.614857966560327,-2.8463988071041824,-2.946524570646008,-2.6393700494607515,7.088731993646995,0,0,0,0,0,0,0,0,0,0,0,0,0,1789524403.5761318,0,2026-09-15T23:06:43.576,
11,-16.97288480773754,-19.729757974035497,-16.679171927607793,-14.542229348384083,-12.591474256727135,-10.176968811649475,-11.870345551209322,-3.2825543887498974,-8.713576918154214,0.5779349339566453,2.4866826006876703,6.615056950861641,12.529883384780536,14.088409902170259,8.723075232324133,9.340165756954573,0,0,0,0,0,0,0,0,0,0,0,0,0,1789524403.5843556,0,2026-09-15T23:06:43.584,
12,-14.953007916229126,-18.614283278968248,-13.357453514627576,-8.197353468564359,-12.758865390300809,-11.059921303402938,-0.7286390495469908,1.890181599854747,4.236388529151313,8.173733005583886,8.346340112583544,8.966172940604151,15.225804090091396,14.611007527729097,13.92936675062396,21.208329904763936,0,0,0,0,0,0,0,0,0,0,0,0,0,1789524403.5925877,0,2026-09-15T23:06:43.592,
13,-12.342801839158641,-7.972011602531312,-8.908716455818512,-4.480841046796066,-1.9922427180651021,1.825489617813477,8.413697089992247,8.578963085680531,14.759140985034596,17.050607473672173,23.952311443665586,14.992068642747089,22.5359333439053,19.692070682900177,19.390545467900495,13.955231986698514,0,0,0,0,0,0,0,0,0,0,0,0,0,1789524403.6007996,0,2026-09-15T23:06:43.600,
14,-6.35437918147107,0.9737813997455966,2.259229555234168,6.423502998732724,8.762923440232672,16.212189035932646,15.34584715438529,10.924886583431077,16.944912674479596,13.935904205048825,10.206219322075818,17.781317173255687,22.09722059962857,16.321699605890732,10.173304996358855,7.894436294972678,0,0,0,0,0,0,0,0,0,0,0,0,0,1789524403.6089885,0,2026-09-15T23:06:43.608,
15,6.39635147316517,7.365738333685737,10.647490323912086,13.530556752059601,16.441985799009718,20.72104039324974,21.20306436343209,20.645534984149805,16.51713994180374,20.034870431418355,14.559176749938768,17.33453642367842,7.114734469513027,6.949628124866794,3.4783863206317096,-4.476538560799156,0,0,0,0,0,0,0,0,0,0,0,0,0,1789524403.6171765,0,2026-09-15T23:06:43.617,
16,15.66940753079535,18.254286418034766,15.221166699089014,20.910693214458597,20.869747093167998,12.134060742084573,20.058826825498254,17.578696736771143,15.659916915939363,9.126567502325148,7.934274194357423,4.1952036503275965,4.066884560503717,-2.744345110541456,-7.844138427352029,-6.9645440747125384,0,0,0,0,0,0,0,0,0,0,0,0,0,1789524403.6253588,0,2026-09-15T23:06:43.625,
17,14.661041225052726,17.333253222063,14.28345385014018,24.66785210741627,22.063432884930805,20.15421922692564,16.756957686504318,11.675824745526118,8.008957871240579,2.24849201161325,-2.117337387727498,-5.777920796399589,-5.536975498023832,-12.023878413149522,-16.78729836119283,-20.424755000462426,0,0,0,0,0,0,0,0,0,0,0,0,0,1789524403.6335347,0,2026-09-15T23:06:43.633,
18,17.640367009128887,24.80179881918347,20.827694689346792,17.728785275809248,13.711716820705313,7.810352094662191,6.692273791080682,4.878101800880246,-3.6842764117985336,-7.809965323266662,-12.008482036852055,-14.59003980448912,-22.424857164935876,-20.07785827846789,-22.561607438538534,-16.836782358043727,0,0,0,0,0,0,0,0,0,0,0,0,0,1789524403.6417077,0,2026-09-15T23:06:43.641,
19,17.333948984879193,19.827681291222472,19.98357721369605,10.81491626200459,5.557762297323161,3.0809614486643566,-2.5127517541131494,-10.34334009571268,-10.372946798709318,-9.363716695089536,-18.870877035117566,-20.25437360276776,-23.09533063927269,-18.063864970843433,-20.627487184163186,-17.01173519162822,0,0,0,0,0,0,0,0,0,0,0,0,0,1789524403.6498628,0,2026-09-15T23:06:43.649,
20,20.450919799447618,10.415355936875201,11.986388041012653,8.3207003030629,-0.7285567381284312,-4.996216681907259,-5.488626151474785,-15.839035426426117,-19.87555844014524,-23.75097988493293,-19.797550941824408,-14.337244520322557,-13.447998870141099,-15.574753519227666,-10.85363777136348,-4.7652569919205465,0,0,0,0,0,0,0,0,0,0,0,0,0,1789524403.658027,0,2026-09-15T23:06:43.658,
21,11.804691182171434,5.324897350229668,1.145963745196005,-4.083579609160719,-10.968784792750538,-14.526702322566958,-17.026047397050945,-19.79727158196339,-18.44997197358328,-13.24718339787329,-14.550868160031182,-12.386395586588366,-12.885829206829833,-1.3427934132405106,-2.835523452886501,4.06040936139731,0,0,0,0,0,0,0,0,0,0,0,0,0,1789524403.666212,0,2026-09-15T23:06:43.666,
22,6.064378936911818,-0.13842251705963493,-8.277290331790693,-17.87851311343043,-17.725963534588793,-21.133505849580935,-18.08789864568569,-12.467361834439135,-16.235767046176335,-15.46964849915551,-11.799166210775354,-2.9240886559975947,2.474132201874323,5.061028352719016,13.669303055761565,13.567149071961255,0,0,0,0,0,0,0,0,0,0,0,0,0,1789524403.6743703,0,2026-09-15T23:06:43.674,
23,-1.1490934037997165,-6.884512215350762,-11.496008551274233,-19.518692461145978,-18.265666823978755,-20.129927399815433,-19.04326466723273,-15.42361746918434,-13.534219301136748,-8.325790697973511,4.3901786696524425,7.253767124985476,13.59039378477173,19.89168967540267,14.108235291617255,17.633399231364102,0,0,0,0,0,0,0,0,0,0,0,0,0,1789524403.6825216,0,2026-09-15T23:06:43.682,
24,-11.229700515454244,-15.004055527502244,-20.15235367710637,-16.912462301906455,-18.389945509414165,-19.820486303982513,-14.547996373821405,-3.7639267060150905,1.3914943693681696,0.48315617047913584,15.79884195743671,17.974420980780604,23.051159288992565,18.84889735677475,18.134011661906097,12.800968633244977,0,0,0,0,0,0,0,0,0,0,0,0,0,1789524403.6906855,0,2026-09-15T23:06:43.690,
25,-9.539744413477376,-20.07172514758531,-15.109626634154331,-20.03841840348224,-13.914656920758839,-14.205654672140014,-4.153113228715483,6.451725904705588,5.879842035310787,17.96694498196728,19.316536899963744,16.790819407910675,17.927842844016475,15.509361479924063,12.405269211986548,5.284426565661065,0,0,0,0,0,0,0,0,0,0,0,0,0,1789524403.6988616,0,2026-09-15T23:06:43.698,
26,-22.29109221634663,-20.51086415522939,-20.231202339700197,-16.617059512903026,-7.037387911012415,2.3973018789966587,1.8307570807920701,12.36771671619855,14.936689925636404,16.55910114432746,22.43253916854403,16.433595964055428,18.54790444517165,6.176067738862271,3.166740277901824,-5.411828960146114,0,0,0,0,0,0,0,0,0,0,0,0,0,1789524403.707032,0,2026-09-15T23:06:43.707,
27,-21.56969820404457,-14.563759886610416,-11.810326701759557,-3.164166001156172,1.8653597753733164,5.484866567114339,14.099972768191407,18.460688960966763,22.835923430209025,16.451628758341986,15.913350137615609,5.762250743995267,6.43989440001762,-5.7511135952080314,-14.61067577568054,-14.927912849987704,0,0,0,0,0,0,0,0,0,0,0,0,0,1789524403.7151961,0,2026-09-15T23:06:43.715,
28,-12.40871376674383,-14.862131520265734,-6.764567935670771,1.5178016185546532,7.115002660199916,17.018091637960474,16.74833344521406,17.778633795831674,19.84645724536732,11.606522223350058,9.12581363008619,-2.160351862247438,-10.055287738789998,-18.254827662546546,-11.820066732655302,-20.73381199115127,0,0,0,0,0,0,0,0,0,0,0,0,0,1789524403.7233632,0,2026-09-15T23:06:43.723,
29,-8.903273378189038,-2.599813198228478,5.453683014318882,11.904764483972542,22.61120962764839,16.528965241702327,14.973358696279249,13.850679504587259,7.751578016573832,7.214683900742976,-0.045530042672823345,-12.519020117485285,-19.581572184904736,-20.085520285326353,-15.787162934936255,-26.555249302715353,0,0,0,0,0,0,0,0,0,0,0,0,0,1789524403.7315288,0,2026-09-15T23:06:43.731,
30,-0.4273539899767007,2.473119567053753,15.67492866543783,14.292361778247002,19.015978728752646,14.721716129803028,12.7939950912381,14.012064320104196,4.968400728956259,-6.421834582249911,-14.769123064504896,-22.959889753392133,-20.990198649635975,-19.464372980331518,-16.283502770921025,-10.570166459558623,0,0,0,0,0,0,0,0,0,0,0,0,0,1789524403.7397044,0,2026-09-15T23:06:43.739,
31,2.5754027498599257,12.742297575292035,17.760808344419956,23.832220681974963,24.46001108091438,14.33929526641011,5.988593766338035,0.30765551958087506,-9.185354879456884,-16.280300843215688,-18.67749459245559,-23.128334177533265,-16.486503198953326,-14.002688766126004,-6.142833542910487,0.45606625568337034,0,0,0,0,0,0,0,0,0,0,0,0,0,1789524403.7478745,0,2026-09-15T23:06:43.747,
32,10.759355889631653,15.144226352080873,19.273961439838164,16.9492487054816,14.754703395605713,7.114942464672082,-5.0918066073635755,-8.766300423515569,-19.438846106938072,-21.089986308279542,-20.692289341586566,-23.245709469627784,-11.070856638955224,-3.2946762425714806,4.011342638713593,10.685147843735628,0,0,0,0,0,0,0,0,0,0,0,0,0,1789524403.7560518,0,2026-09-15T23:06:43.756,
33,16.756017502700853,17.056171046978616,17.692443027502712,12.033106708029187,6.693928374206383,-5.619642565658874,-9.36569430568176,-15.897128333910675,-20.07043351110995,-20.750249127552344,-14.068748965322012,-14.185402332811343,0.3764736508399462,8.091603452264689,15.25630937536197,20.009748495155318,0,0,0,0,0,0,0,0,0,0,0,0,0,1789524403.7642229,0,2026-09-15T23:06:43.764,
34,17.999601348786882,17.817149542860715,15.602117112222794,7.472257619748257,-1.8865263749581478,-15.259496634938813,-15.272897165390685,-16.333881050310243,-15.992115846774503,-13.87773840212091,-12.035526864506117,4.083444833270306,9.193309571875002,8.582780943298063,20.777367223895382,14.895147873333997,0,0,0,0,0,0,0,0,0,0,0,0,0,1789524403.7723975,0,2026-09-15T23:06:43.772,
35,14.970488977272115,12.148122718855452,10.236645729792873,-3.6192007338212027,-10.114912171475218,-11.906629232616348,-15.140582894896065,-18.996639096614363,-14.41550518475536,-9.72344353380941,0.9211375598703784,12.621454025373396,18.590867378819397,20.29124926208731,21.485949109380954,11.003133309585516,0,0,0,0,0,0,0,0,0,0,0,0,0,1789524403.7806065,0,2026-09-15T23:06:43.780,
36,14.58203278661309,9.321966539749468,-0.2547965783405486,-7.503698572382671,-15.959471903577857,-20.87138567200277,-17.414967355901975,-16.13950070421149,-9.89217573792653,5.982157541132558,12.388406227350979,19.127348292950934,14.892736361287533,16.430791526701,9.545807641340588,0.16316946948273925,0,0,0,0,0,0,0,0,0,0,0,0,0,1789524403.7887776,0,2026-09-15T23:06:43.788,
37,1.5224666004783147,-2.009506810006541,-7.38055116821662,-15.74356534444906,-21.725512011860864,-18.546172051640074,-10.670718990674906,-12.76666880695022,4.600188102877141,14.949837790229294,20.73296472483476,24.974416831430265,20.01705502120574,10.572761986273074,1.4085299272130865,-6.381479289034847,0,0,0,0,0,0,0,0,0,0,0,0,0,1789524403.7969482,0,2026-09-15T23:06:43.796,
38,-1.1153790753602557,-9.08822848663018,-13.608068005108073,-13.969958381604282,-19.16438076632747,-13.276917183048702,-3.8899746376246034,9.246441207822052,13.6000022078063,23.350043209308296,16.833747231871104,15.321699085745728,7.6930161498091545,1.1037067817024169,-7.367711468291024,-21.80680141821142,0,0,0,0,0,0,0,0,0,0,0,0,0,1789524403.805109,0,2026-09-15T23:06:43.805,
39,-10.107843931127249,-14.399707419186417,-21.621825952231223,-23.588413652846008,-10.575502202503335,-3.4918874908361373,6.453330233879295,12.264604969235466,22.107945682405028,18.925865025292428,18.699570688984632,4.6274956008657355,-5.069071014337457,-11.14171541405636,-20.203537486711568,-17.93418137245894,0,0,0,0,0,0,0,0,0,0,0,0,0,1789524403.813263,0,2026-09-15T23:06:43.813,
40,-13.272736163589832,-22.009467085311016,-19.214037855458177,-15.633205612990327,-3.1933331440095514,2.342483248906483,12.002718062266393,22.575676816023886,26.361525182301314,21.24587621291277,7.082527498472172,-2.596179182692992,-7.9534512389659655,-18.96883413649892,-22.738275925345125,-15.529181180647777,0,0,0,0,0,0,0,0,0,0,0,0,0,1789524403.8214045,0,2026-09-15T23:06:43.821,
41,-17.146993795092772,-22.29667736738777,-20.664462067229806,-11.672679597355836,5.000799634932139,10.278697676878473,18.26253757201889,20.37139493717087,17.267687492799908,5.888150067349924,-2.004314078063763,-15.611300107751436,-19.944952794891307,-22.718991777937386,-11.68972596563634,-6.500121880345134,0,0,0,0,0,0,0,0,0,0,0,0,0,1789524403.8295329,0,2026-09-15T23:06:43.829,
42,-22.21634334696722,-18.07700503008929,-9.856782654599574,3.3573697645612746,6.558470447979377,15.09050188882365,18.737904455727683,23.476725471260174,10.229527731289586,-3.587098341290425,-10.805120484156337,-12.769657591003854,-20.246594251690063,-15.678612580720959,-1.8232080806809154,6.699356620196773,0,0,0,0,0,0,0,0,0,0,0,0,0,1789524403.837675,0,2026-09-15T23:06:43.837,
43,-16.290823986450707,-12.87004618037691,4.767723033432812,14.763845886815222,19.10151846000874,22.0386589672535,10.530135367187189,10.200641000357358,-3.0889904329620226,-11.25211010832928,-16.812432482319,-20.569237775688702,-19.47762589831945,-3.8701740480744506,3.7166806742194756,14.094445336549045,0,0,0,0,0,0,0,0,0,0,0,0,0,1789524403.845809,0,2026-09-15T23:06:43.845,
44,-15.504471650856356,-4.772349057480049,0.4339281818957472,19.83118126919347,20.72057287554485,20.860331389633885,15.574598971464141,-1.188031022897991,-17.163013813371176,-21.27719026890375,-23.266458457263905,-16.084996477863275,-4.734853809099223,0.1737780864291789,16.43769133554041,15.311224066431924,0,0,0,0,0,0,0,0,0,0,0,0,0,1789524403.8539622,0,2026-09-15T23:06:43.853,
45,-6.000762675090311,4.156941783456667,13.46528678018039,19.42661584674983,16.882210089494098,9.507964652322588,-4.5456672637398565,-10.592374543773845,-12.559939917450437,-13.867743325279221,-11.119574825087263,-3.3416339077918598,3.9113912593006286,19.73851722016454,19.703843547077255,17.670201953736054,0,0,0,0,0,0,0,0,0,0,0,0,0,1789524403.862117,0,2026-09-15T23:06:43.862,
46,0.13120496807759063,12.23398535820524,17.554166013093123,19.120316714453306,10.066440022503274,1.634814699471193,-1.900645923169181,-17.487250427742527,-20.67651626288072,-14.2826851356416,-4.294506731033774,1.8755235482816568,14.463551266312283,22.597121549093853,18.68634137024162,10.220408961471104,0,0,0,0,0,0,0,0,0,0,0,0,0,1789524403.8702872,0,2026-09-15T23:06:43.870,
47,13.40436833884485,15.370356814471593,20.170909868186342,13.850088859750564,9.929963397575253,-12.27445339397379,-18.041764783868786,-21.573260350895538,-14.895939640525519,-6.008646908415482,8.179782391004348,9.684081970746146,21.985143911248787,17.216701456455457,8.075588320940694,0.11216948955888251,0,0,0,0,0,0,0,0,0,0,0,0,0,1789524403.8784387,0,2026-09-15T23:06:43.878,
48,12.324608866515124,13.668280453683035,16.2930196266226,4.022273276375778,-5.447208642717534,-13.1160492529324,-18.79771964731489,-13.227406684391742,-10.234037722864796,-2.34286707417395,11.051946778777996,16.73238478185273,14.848068661314432,12.02263748462622,-2.940583377491097,-18.289310711867767,0,0,0,0,0,0,0,0,0,0,0,0,0,1789524403.8865988,0,2026-09-15T23:06:43.886,
49,21.111898735260706,18.686850619782934,12.826216880907033,0.3171646340999659,-9.860740843404326,-18.90707408485648,-15.312522875468442,-10.480756675917801,1.1762028701651905,12.985305798897118,14.651217098196927,18.527223070491917,10.977755577200988,0.6226401634814036,-15.831787538738322,-14.118785995224354,0,0,0,0,0,0,0,0,0,0,0,0,0,1789524403.8947394,0,2026-09-15T23:06:43.894,
50,20.235838175333033,11.284870286531643,-1.1324612804483225,-9.359447712463398,-17.914850767478455,-21.927911152681453,-13.776657912205245,-4.679333115411503,11.290048237153133,16.028493958533225,19.4298617960491,16.068232635145584,9.221542759289672,-13.73946547747174,-20.0801021593935,-21.76006052512153,0,0,0,0,0,0,0,0,0,0,0,0,0,1789524403.902876,0,2026-09-15T23:06:43.902,
51,19.998809494006903,4.843213702713043,-5.9384863557668695,-15.499068705228286,-22.921825071251014,-19.198760141271247,-7.36770029590636,0.5915377424782315,12.550123858820264,18.683569919483936,15.194954256189463,2.9431812216448265,-14.513503296947835,-19.48789992460038,-17.150049549845363,-11.27352269541492,0,0,0,0,0,0,0,0,0,0,0,0,0,1789524403.911002,0,2026-09-15T23:06:43.911,
52,12.317583641230526,-2.410788827627557,-10.264956841035508,-21.10845016620246,-21.81256865984041,-11.820637348792062,7.845497054827884,15.579363023088673,23.438275727708543,15.032643012640499,8.75527964909613,-8.932749705119198,-17.622815230971486,-12.383243246422477,-11.751553499078168,-3.760638823452737,0,0,0,0,0,0,0,0,0,0,0,0,0,1789524403.9191256,0,2026-09-15T23:06:43.919,
53,5.204581593266373,-6.848803074087096,-14.014451760151346,-21.113144289584223,-18.165076485202324,-1.34152734824566,12.204762325383337,19.76124856449919,22.04661145786839,9.692376567936531,-2.0466643040796506,-19.02910972450678,-17.394716418802677,-9.12160536054693,-1.6754717395376644,9.952264372251928,0,0,0,0,0,0,0,0,0,0,0,0,0,1789524403.9272482,0,2026-09-15T23:06:43.927,
54,-2.044700106062824,-9.217945831350244,-22.74207901873802,-16.513646961361133,-3.5931749644824467,10.74758915474105,16.7845573321952,20.293627406754332,10.921940601796114,-0.8943969921823287,-14.087216739695487,-23.2670750598562,-16.94989926511067,-3.5488853213134313,4.461436179068474,16.8028583545528,0,0,0,0,0,0,0,0,0,0,0,0,0,1789524403.9353716,0,2026-09-15T23:06:43.935,
55,-8.078123839343741,-22.069406038098812,-18.13866383660777,-12.815462938894646,7.398091112789478,22.66423278837196,26.052555305549078,14.092720313844104,4.727262057507971,-10.564893749184888,-18.86411809213967,-13.661552269604863,-12.69985406157121,8.139681535695457,16.17985702887643,24.148294044675872,0,0,0,0,0,0,0,0,0,0,0,0,0,1789524403.943512,0,2026-09-15T23:06:43.943,
56,-15.46963959071922,-21.961193988790836,-13.221578265722817,0.9520908945027702,12.265896976225706,21.061215877354726,15.838649566284595,0.254739187924538,-4.6624203023735395,-15.66524976771801,-18.988099504450478,-11.346222381814414,5.1161216050884315,13.208052371998516,17.86618725673623,15.003596422852501,0,0,0,0,0,0,0,0,0,0,0,0,0,1789524403.9516528,0,2026-09-15T23:06:43.951,
57,-15.865343092638893,-21.8071632414925,-3.3173684856482564,5.444732491077025,14.57459798385322,23.087818285092425,10.637216650296809,-6.905214875569914,-16.4864640326851,-17.192632160150676,-10.829957919892781,-2.787832156321808,13.377568231183831,21.787998911757054,15.216653642724026,7.005939857040035,0,0,0,0,0,0,0,0,0,0,0,0,0,1789524403.9597788,0,2026-09-15T23:06:43.959,
58,-19.829352628424054,-13.965265493226001,0.0300923044218373,14.780475994029835,20.08798134495222,13.222353048510657,0.7293989718239275,-8.618087946129334,-19.004263609042816,-14.364606536129045,-1.8535720145342776,10.734191100719196,25.4992377892795,16.119617622473353,11.167544112265627,-6.654817168492767,0,0,0,0,0,0,0,0,0,0,0,0,0,1789524403.9679184,0,2026-09-15T23:06:43.967,
59,-11.319208719926493,0.1275226208801854,3.772439936014079,16.114531598367403,20.089479781703428,9.732092683347036,-5.152798405215668,-18.309137033840386,-17.655767852212648,-7.67600917467543,4.740183934685141,19.968464415125187,12.867253267246653,13.657085604559462,-5.608822508143152,-12.53423143160758,0,0,0,0,0,0,0,0,0,0,0,0,0,1789524403.9760637,0,2026-09-15T23:06:43.976,
60,-12.03143225720877,0.5863814906455884,17.15304616765028,17.108293532752263,9.815523533147852,-6.45890699887415,-15.165150879116357,-18.484268567047845,-10.621864160180055,-0.17386278770009272,17.19656502131992,20.047566711070402,14.470396904224854,2.9764992341596566,-9.765940903011522,-20.92332370300179,0,0,0,0,0,0,0,0,0,0,0,0,0,1789524403.984242,0,2026-09-15T23:06:43.984,
61,-4.725484476156068,10.44539272058584,19.79366985233938,14.185333881224876,7.56943339918651,-11.704721494560914,-18.045304287959876,-19.62695084054483,-3.8973858848704106,11.247243079966122,18.04558855627349,23.466343392381972,6.572158594072254,-4.30428671310214,-16.293019008653108,-19.63264894986725,0,0,0,0,0,0,0,0,0,0,0,0,0,1789524403.9924028,0,2026-09-15T23:06:43.992,
62,2.8476391633144678,18.05886700291454,19.728880066880116,10.864919324856755,-5.344030082111256,-22.44531870311682,-20.108932588555568,-16.94315506739846,6.089256449651856,15.100294981573565,17.161382598149057,9.196635444075916,-4.64102167145876,-21.822152134085137,-24.41623934900774,-12.61227625780608,0,0,0,0,0,0,0,0,0,0,0,0,0,1789524404.00057,0,2026-09-15T23:06:44.000,
63,5.2201964099389695,16.833170054489468,20.80398878898643,-0.6630930782050628,-10.599611701113448,-24.037576607658853,-14.187667157004613,-1.9640878002334698,13.51150376197098,21.704753667178945,19.32171977192551,0.08151714063305826,-14.377185492975102,-22.880637721012377,-11.191100265391892,1.2690173053884735,0,0,0,0,0,0,0,0,0,0,0,0,0,1789524404.0087543,0,2026-09-15T23:06:44.008,
64,19.382579638765595,19.24054387111771,14.857640593463827,-12.12908939691136,-18.98633912978561,-15.951084801361237,-8.41456764494857,6.139066624285068,18.22348850868432,13.386347358055282,5.330659058366334,-3.395150379060185,-16.21065051989357,-19.507367207044755,-5.126687918270978,11.534296367906514,0,0,0,0,0,0,0,0,0,0,0,0,0,1789524404.0169091,0,2026-09-15T23:06:44.016,
65,22.74696726735917,13.261307615224792,-0.5641581462840186,-11.036693818029033,-17.404463172650882,-14.441681329853354,-1.3460559460940869,11.382105227629383,17.54877463384345,3.8119058924114286,-3.209579064616744,-19.766920582438924,-17.24269785639686,-1.7575163908895446,12.261302454417228,15.71703126650657,0,0,0,0,0,0,0,0,0,0,0,0,0,1789524404.0250597,0,2026-09-15T23:06:44.025,
66,22.040381617723558,12.887649725855947,-9.131928017778653,-21.455420486981033,-18.2059041750409,-10.021100174346465,15.340091782590012,12.556943515666818,12.089842608289601,-0.05489183862876201,-15.087441771750212,-19.444805485784407,-11.344260247867654,3.106790247838168,20.561192080182852,12.679162386021261,0,0,0,0,0,0,0,0,0,0,0,0,0,1789524404.033208,0,2026-09-15T23:06:44.033,
67,16.03084615566665,-0.6372171245876102,-13.655459090546579,-19.298255054726596,-14.894092583376468,2.0713526206816724,19.78143526314602,19.90697952381024,5.321745743886045,-3.0719243344039455,-12.505101712808251,-20.714172451224734,-1.1018494161233146,21.217925425470966,22.337485340366463,13.217007654551624,0,0,0,0,0,0,0,0,0,0,0,0,0,1789524404.0413914,0,2026-09-15T23:06:44.041,
68,9.44829353263692,-8.279973748089944,-19.324122956991463,-19.17832183810167,-1.7594745346140255,11.162731303732361,18.662334916781614,9.900174101933267,-2.6554342944270246,-19.432925821159813,-19.7126862865348,-4.932682056108602,9.840089991952016,20.88583910692892,17.395057713617117,1.9345511215891953,0,0,0,0,0,0,0,0,0,0,0,0,0,1789524404.0495915,0,2026-09-15T23:06:44.049,
69,2.1246799792711326,-14.614360766278798,-17.683183542066214,-15.008424473714172,8.995965501973746,18.19877523737484,15.850439877588258,3.5063595061769863,-13.786676249413777,-19.479915071481308,-15.844471252038655,5.933058267637251,14.541641532197573,12.203564534660536,5.16949557551593,-15.660637001933386,0,0,0,0,0,0,0,0,0,0,0,0,0,1789524404.0577924,0,2026-09-15T23:06:44.057,
70,-5.578645262064396,-15.227163012203452,-15.70254512790206,-7.7603948065562935,10.654353386684852,25.329584392366055,13.114140180095218,-4.717623862572209,-14.928353365739682,-10.629881655037032,-0.5956953862484391,12.775438026118307,21.062485412030792,14.59971916826852,-5.832295099818305,-20.93888739442319,0,0,0,0,0,0,0,0,0,0,0,0,0,1789524404.0659766,0,2026-09-15T23:06:44.065,
71,-12.396479975345802,-22.840054572465682,-12.342993210997365,5.262166863273247,25.327935418067142,15.09267454472938,3.135094383592878,-13.813146017438516,-18.648602968439448,-8.20520598778437,4.469381126660753,16.22252275881711,12.228401276078202,-0.2719488191223669,-12.443676892247145,-19.73528508493057,0,0,0,0,0,0,0,0,0,0,0,0,0,1789524404.0741637,0,2026-09-15T23:06:44.074,
72,-20.6921265134175,-19.320421843154495,-4.390996375616854,14.259516589800562,18.20560639429621,10.800133895471763,-11.396135831561281,-22.22883455979129,-12.033411535503797,-8.321445949099603,13.736854689261351,20.348881378616888,8.06854947644884,-10.940058401397572,-19.728598068525848,-15.263746424735857,0,0,0,0,0,0,0,0,0,0,0,0,0,1789524404.082355,0,2026-09-15T23:06:44.082,
73,-20.169024397659147,-18.95337371214141,3.5519887264219605,15.53120297844572,16.002616904258463,3.6854360724395527,-12.130813144535233,-17.118896511207417,-11.12431265297107,11.059519950025912,23.06654506923584,18.494941388360278,2.6627677058758428,-17.323606027796995,-19.20897459435206,-2.983886372163434,0,0,0,0,0,0,0,0,0,0,0,0,0,1789524404.0905426,0,2026-09-15T23:06:44.090,
74,-23.120703271287177,-5.552052745693983,10.164028069339759,18.893632847415777,6.531161702153749,-8.851972804908511,-19.082612114274387,-13.514980365218204,2.970079768224122,15.939360462511175,18.45326525421615,3.6883023264500614,-10.548635554920905,-20.742734001522614,-9.938051428402535,11.435400299876836,0,0,0,0,0,0,0,0,0,0,0,0,0,1789524404.0987036,0,2026-09-15T23:06:44.098,T1
75,-15.182152486507535,-2.484829125497925,14.821123764303945,13.722098725310587,-0.09086788873939344,-10.13718722552053,-19.05374016378193,-13.302838627745967,11.595969980124595,23.6533508326368,12.240613676377484,-6.513387736398185,-19.513677274143948,-16.03273897927782,0.9150240871736084,19.27241915685306,0,0,0,0,0,0,0,0,0,0,0,0,0,1789524404.1068785,0,2026-09-15T23:06:44.106,
76,-5.104880715279188,13.410758375646743,24.008436478203667,14.732643164374924,-10.051758523342446,-19.334858788435714,-15.089578159547468,-0.39557514162448504,19.62034107474621,17.32399503076092,1.2169585203970046,-9.540169117938868,-17.73570595473837,-7.857824478700361,12.852591307094631,23.130780723218432,0,0,0,0,0,0,0,0,0,0,0,0,0,1789524404.1150572,0,2026-09-15T23:06:44.115,
77,0.018221069322663208,8.658355440734622,16.83304236585412,3.604060354562235,-16.27284003402443,-19.213196212172072,-5.165708934464664,8.617747277093908,16.55603655955281,18.24271038662372,-7.773185014436844,-23.006527550805224,-14.37199586586677,3.783712416054639,15.761678213983194,19.775035817155278,0,0,0,0,0,0,0,0,0,0,0,0,0,1789524404.1232498,0,2026-09-15T23:06:44.123,
78,5.430900148630284,16.721684709560378,14.941953103332681,-1.4353193603395935,-20.403098610273258,-15.478775284525874,0.2221269906506394,25.493190585102262,15.970862005831105,6.9083206153113705,-15.242066480038716,-19.620839442738585,-3.775836296931466,15.430451494595268,23.67327313326036,9.95361952720608,0,0,0,0,0,0,0,0,0,0,0,0,0,1789524404.1314325,0,2026-09-15T23:06:44.131,
79,11.889752949300021,18.032806702021574,8.891450626343527,-10.013005434026217,-15.766381746475949,-8.379782115778193,12.815578277807445,24.5108476729173,12.250106679442805,-11.819167008465481,-23.18357627407552,-18.004350723145375,9.748568886339333,16.478904541416235,19.105789551752657,-0.7494689365944809,0,0,0,0,0,0,0,0,0,0,0,0,0,1789524404.139615,0,2026-09-15T23:06:44.139,
80,23.45063083293548,19.479933411032086,-1.3119971472355747,-18.126224952057076,-17.14817193355207,-0.22802079770210115,15.01968697054594,18.104234520933932,7.334624857293216,-20.67566096381738,-18.08434629927668,-6.9610006163834095,14.967291746172751,21.891230548197232,5.768001090167641,-10.81275435551392,0,0,0,0,0,0,0,0,0,0,0,0,0,1789524404.1478086,0,2026-09-15T23:06:44.147,
81,15.228902679923763,13.824459937222315,-11.00098494037412,-18.093310359188337,-10.798034694605713,0.5308250824943315,17.604033845989505,12.820131057698315,-2.700562808986179,-18.87191402644635,-12.168031592076677,2.180819927256019,23.838802560934305,19.112173104138137,-5.373313580974554,-19.966903921325855,0,0,0,0,0,0,0,0,0,0,0,0,0,1789524404.1560173,0,2026-09-15T23:06:44.156,
82,13.644394989260201,5.405768990562164,-7.618930665655148,-16.44419049340554,0.7865987720444676,17.195507912464965,15.731531189425983,7.262761196957303,-19.113989553924995,-19.40667187006664,-2.6639059444979023,17.897579202558944,20.107767714150228,4.908129794214744,-17.369491820008342,-22.810080341776228,0,0,0,0,0,0,0,0,0,0,0,0,0,1789524404.1642294,0,2026-09-15T23:06:44.164,
83,14.237441400766604,-7.589623042075185,-23.35599154250125,-17.488781533079553,4.47044620902138,13.987625890841844,9.27783124015195,-11.324282983352003,-19.09896662322879,-11.717166542833642,12.914281353038911,15.241129486460224,10.515036349085111,-4.62465688572514,-20.459549928899886,-13.139599770015455,0,0,0,0,0,0,0,0,0,0,0,0,0,1789524404.1724195,0,2026-09-15T23:06:44.172,
84,12.490000163712137,-13.763698273536004,-23.114329622575767,-10.13115976709983,14.698025085515589,20.287388032790496,0.8586906324386367,-17.535561321607176,-17.416992412456246,-2.015825974139153,13.480598604703822,20.462178323320998,4.222228433157861,-21.529585133657577,-19.032732300666545,-0.010433617222862068,0,0,0,0,0,0,0,0,0,0,0,0,0,1789524404.180621,0,2026-09-15T23:06:44.180,
85,-2.2218290153585816,-24.29362408992837,-17.17582917874203,4.762944151110277,23.4277956065716,8.512679630960125,3.3545488177052825,-22.68904176975324,-10.820029506170444,10.121466407747212,22.682770784558752,12.607461392573352,-11.771764607929258,-18.080858204607207,-12.649192129552619,2.504379202403367,0,0,0,0,0,0,0,0,0,0,0,0,0,1789524404.188837,0,2026-09-15T23:06:44.188,
86,0.19918428128318943,-17.850433066238338,-4.61823264725567,7.981667477096464,24.325180653099157,12.365189384883053,-8.277470657885267,-19.554156455368016,-8.581183874525037,14.38688448789258,12.07827150783244,-2.848909470740863,-16.33610164046534,-20.500328998181878,0.009261342502286163,17.66110577712334,0,0,0,0,0,0,0,0,0,0,0,0,0,1789524404.1970646,0,2026-09-15T23:06:44.197,
87,-8.958081201608184,-14.79369913987944,-2.1418520495128215,20.513257112548253,14.811393689802069,-2.517227182843211,-15.770871206336912,-18.81000934743513,4.136855558396359,15.582824891099701,12.906244449297901,-3.3899643530973176,-22.242080120114696,-8.957434994292928,8.653413277625567,16.360581684211862,0,0,0,0,0,0,0,0,0,0,0,0,0,1789524404.2052567,0,2026-09-15T23:06:44.205,
88,-22.567359278882503,-9.86645729995692,13.506178607996961,21.291425142206272,8.779008027273447,-8.174115772600514,-20.925642761892565,-4.724042531653036,14.563923033172003,19.936403347498153,4.826339960541054,-18.20913286349992,-18.61677856272917,-3.907926379575711,17.17593581232875,10.651824838289173,0,0,0,0,0,0,0,0,0,0,0,0,0,1789524404.2134333,0,2026-09-15T23:06:44.213,
89,-20.394578165685257,-10.235383901852316,13.994645379537717,20.380848245150325,-1.7537030419084578,-19.326395792778154,-19.716494215546483,4.746144946521364,24.140216408063534,16.245551964683088,-8.410747836790929,-15.565515399657036,-14.177396691358226,16.253779202233652,17.67710239566834,-3.3670819021671132,0,0,0,0,0,0,0,0,0,0,0,0,0,1789524404.2216094,0,2026-09-15T23:06:44.221,
90,-9.924414265771038,5.487872876369299,15.405892955328861,15.086398491207767,-7.062370552903712,-19.592357929741198,-14.522323345338993,9.506972120444898,21.049628862816647,5.39806845034131,-12.128053112712522,-17.523478203989654,8.052551421289289,16.448335046259047,15.184177673618843,-12.405344578260166,0,0,0,0,0,0,0,0,0,0,0,0,0,1789524404.2297554,0,2026-09-15T23:06:44.229,
91,-16.700518617682526,12.727893215812745,17.157381150375816,8.95451657569791,-14.238311968031125,-21.82022572219494,-2.0496341861569833,16.334127579085052,13.948167250141976,-3.198214077564014,-17.852194850683276,-12.235769689107132,8.624070571017285,20.492757018128735,4.1853689837359465,-12.946492310068194,0,0,0,0,0,0,0,0,0,0,0,0,0,1789524404.2379034,0,2026-09-15T23:06:44.237,
92,2.025049080299402,17.777623523503344,17.77263766983266,-1.771942303223402,-21.429893079249762,-16.226674515568217,5.27726508836233,18.807678271449863,6.0810607164111,-11.999521424500156,-19.69854118169052,-0.8436699469753088,14.650001375750831,19.513099436019303,-5.371899234730557,-14.608119624448609,0,0,0,0,0,0,0,0,0,0,0,0,0,1789524404.2460432,0,2026-09-15T23:06:44.246,
93,4.397891673132353,23.63934363608737,11.808364649479085,-7.483591058163581,-11.755707101871813,-9.129642095163923,19.254575507925026,22.497507748626354,-1.2432819381578466,-17.01199546951479,-8.3197025507529,8.061578534818704,21.061463698364726,2.3097829364407803,-18.105080821381726,-19.045221360707743,0,0,0,0,0,0,0,0,0,0,0,0,0,1789524404.2542043,0,2026-09-15T23:06:44.254,
94,9.196268663957651,20.291620941739946,6.362897244352831,-20.53306595694502,-10.806232244518704,7.298213161983293,21.876433322752035,9.616944724759907,-12.029625046052123,-17.68816396067288,-1.2423447121002567,12.362946286646757,17.688102648326073,2.784402877710913,-25.640404419021714,-5.456552966399107,0,0,0,0,0,0,0,0,0,0,0,0,0,1789524404.2623475,0,2026-09-15T23:06:44.262,
95,16.861274567960237,16.807287464738405,0.7205860405613107,-23.286533953814416,-10.002207620890424,16.664469909676903,18.564140145849905,0.2187470114789567,-17.74260938212657,-15.776446541772644,12.594979527624876,17.190246131798315,9.109666007136036,-19.27031625421513,-15.34095788522497,2.6811133736890858,0,0,0,0,0,0,0,0,0,0,0,0,0,1789524404.270496,0,2026-09-15T23:06:44.270,
96,11.342146862699853,11.533024608384194,-14.635730206357884,-20.742007760353815,2.7374210989233685,14.542361770205416,11.136329220578435,-3.615480143657801,-19.60294380716084,-0.9461924966249251,17.029161819765253,14.029366786023612,-4.689917334553445,-16.049908734947877,-6.2890815378763705,13.50939075864793,0,0,0,0,0,0,0,0,0,0,0,0,0,1789524404.2786572,0,2026-09-15T23:06:44.278,
97,19.959659526070325,3.6470982899425994,-18.93453463761209,-9.452625607390402,6.915037973984937,16.509693527699213,4.947619550292311,-13.485309060439597,-14.907880214405445,4.06241811496797,17.810455340495785,8.816061695837965,-19.21506204613596,-22.11187069444462,4.471433079442869,17.95432827385645,0,0,0,0,0,0,0,0,0,0,0,0,0,1789524404.2868273,0,2026-09-15T23:06:44.286,
98,18.30698492555117,-0.4823645992285006,-17.86848873290065,-8.452016871347162,20.970126091350245,19.82222536550889,-4.097892814241077,-17.433196511213453,-8.377034000343983,10.866698245576444,18.52986906465078,-2.2658965321888873,-25.497291689403788,-11.2482902713916,11.680661187244255,17.422759148003706,0,0,0,0,0,0,0,0,0,0,0,0,0,1789524404.2949758,0,2026-09-15T23:06:44.294,
99,6.682414651274584,-12.849655100602773,-19.143536598076622,0.3143866221257739,15.519051524531136,13.70638502312216,-15.504719121239159,-19.71125397118654,4.024976161370139,16.88585841987622,10.180700011943017,-8.445645813836702,-20.20527081035553,-0.9157691554364433,19.703206380932205,14.990962365333388,0,0,0,0,0,0,0,0,0,0,0,0,0,1789524404.3031034,0,2026-09-15T23:06:44.303,
100,-2.3084625138818184,-19.831981801459033,-17.855002669605284,5.172345388051079,17.175878087898898,0.6680983771818836,-16.949180329424543,-16.609449202671087,10.011826315918679,20.831362772300654,-0.2369252450214825,-18.003008421077222,-7.908561885050658,11.706697792216344,17.34869450508576,0.554241820161179,0,0,0,0,0,0,0,0,0,0,0,0,0,1789524404.3112094,0,2026-09-15T23:06:44.311,
101,-6.314287277881969,-19.040817558315947,-5.180125918402118,12.896431971258902,15.97008647807531,-2.5289432083795003,-21.523878011654368,-4.882731201315887,13.748166109875886,12.574670282993292,-9.857901188558033,-13.280268444290158,-4.231662206424989,16.50666499111151,11.630656763253768,-11.000299661400652,0,0,0,0,0,0,0,0,0,0,0,0,0,1789524404.3193886,0,2026-09-15T23:06:44.319,
102,-8.96009657962651,-18.528819583922274,6.67604593296787,20.013046562771326,14.41467648078494,-13.042932768181473,-15.829080033356776,-0.09065762069900707,19.579356224147894,6.449547668573447,-17.05565603503608,-22.027881912913116,10.469346722361779,18.680843037243015,1.6902978156764061,-18.967633796820397,0,0,0,0,0,0,0,0,0,0,0,0,0,1789524404.3275588,0,2026-09-15T23:06:44.327,
103,-17.296155550539538,-13.863732352355894,4.92921857832284,16.8526188438228,2.378435998256867,-18.423062283896176,-12.475343409261445,11.219382014465891,15.593266939810663,-3.675526671192341,-16.38047476328912,-10.06701071762766,20.896739154294032,17.942209251657083,-9.646402831795296,-17.384494257768104,0,0,0,0,0,0,0,0,0,0,0,0,0,1789524404.3357434,0,2026-09-15T23:06:44.335,
104,-24.043455265160013,-13.710310666785226,11.54091808706225,14.951100491556417,-8.338720960542595,-21.387721277717578,-2.2083965995919823,12.190067994608949,13.241753264904128,-17.006381531650696,-20.079092864996376,2.509074892835361,16.49190265833797,2.067340881586194,-19.904803505683176,-14.615143474851786,0,0,0,0,0,0,0,0,0,0,0,0,0,1789524404.3439174,0,2026-09-15T23:06:44.343,
105,-17.775415934185567,1.1901036242450875,16.324159661854015,7.260342037398486,-17.51207184111326,-15.262481047626874,0.7805979219345041,23.587243992146874,1.0522500454171926,-21.03715344053332,-10.327017594812443,16.418094514004018,18.673574299353938,-1.815564371341253,-19.595344434115027,-0.796499401864474,0,0,0,0,0,0,0,0,0,0,0,0,0,1789524404.3521035,0,2026-09-15T23:06:44.352,
106,-12.591304898487582,7.297145542439873,24.051336547938234,1.7500114945267908,-18.909756119441436,-12.618967842307983,13.883922329801841,18.80340019009932,-11.300431782902763,-17.824162866782476,-0.46068825675021197,19.9299751436832,3.452987446443462,-14.88910130733203,-14.667137960843442,4.839372703510532,0,0,0,0,0,0,0,0,0,0,0,0,0,1789524404.3603222,0,2026-09-15T23:06:44.360,
107,-10.232572501932614,7.271960690553451,18.626097092781674,-9.349789482720782,-17.119648041457186,-6.533245191392044,21.384434941642382,8.480779349472884,-12.987453462508856,-18.5028980040688,6.886944258788965,26.15998869276111,-2.992458360178291,-21.763826636797415,-8.657219448239406,13.259108836882604,0,0,0,0,0,0,0,0,0,0,0,0,0,1789524404.3685222,0,2026-09-15T23:06:44.368,
108,0.5668585766357497,23.949717095690247,8.391174399475895,-19.75746908546802,-12.810853105371406,11.383300249648446,22.010340047899653,3.218213506579817,-22.248320812045186,-8.101071136451958,12.459589170894615,9.976225055428358,-7.98458301287668,-20.61126950509435,10.339175961565573,20.21622411561372,0,0,0,0,0,0,0,0,0,0,0,0,0,1789524404.3767083,0,2026-09-15T23:06:44.376,
109,3.0525232975958922,22.3541901796845,7.910451744084154,-17.562737447627594,-13.28650899441524,16.523273261170978,19.537059038716073,-11.114796329113165,-21.342056198136913,5.556008405374591,20.38043779007138,1.666171435248958,-19.235780854064974,-14.022692518747316,14.579748113184937,17.215612050520846,0,0,0,0,0,0,0,0,0,0,0,0,0,1789524404.3849044,0,2026-09-15T23:06:44.384,
110,15.609947083072791,19.891724102214642,-10.631433613628898,-18.62132243192374,1.6859105954248468,20.858175256830194,10.91765231458253,-18.399291778853065,-16.5434376004313,14.748309736877763,14.680434468568155,-12.178997847732582,-16.796326376429143,-3.4283651675923608,18.514436055264476,3.864190669581916,0,0,0,0,0,0,0,0,0,0,0,0,0,1789524404.3930852,0,2026-09-15T23:06:44.393,
111,13.427092332375116,9.084060699887166,-14.402186903880452,-15.776561281572546,0.9340396894718541,21.68915418214755,-5.052530598924394,-23.121607456725627,-2.9402315790721296,18.080921654875144,6.31858557596329,-9.216484285460353,-18.30763345755485,10.377021337876796,19.459481763680905,0.7335203060839781,0,0,0,0,0,0,0,0,0,0,0,0,0,1789524404.4012258,0,2026-09-15T23:06:44.401,
112,18.505219704062505,8.241099178945646,-20.530492019372737,-7.350149324073312,12.796073725976584,14.162222924385489,-4.815592955528743,-17.453722782962394,5.3030746614051,26.62516816466218,2.08895638569575,-22.045512970870757,-4.688974468606972,13.981090849852997,15.543555570123877,-10.255132836795639,0,0,0,0,0,0,0,0,0,0,0,0,0,1789524404.4093988,0,2026-09-15T23:06:44.409,
113,17.451558244723817,-4.888217330266676,-19.46890809702359,-2.4641992159492165,16.374569926066453,9.531736935700529,-23.276160212664415,-13.85240560058527,12.479119224002952,15.506988359776283,-8.269925496302593,-22.543877997114713,5.759744859995429,19.420072522600385,-0.4441122248820528,-23.645840874850705,0,0,0,0,0,0,0,0,0,0,0,0,0,1789524404.4175768,0,2026-09-15T23:06:44.417,
114,11.860937040317935,-9.635561583492205,-20.988088377946706,6.372935981054792,22.83169387884814,1.8421174554523734,-15.279343686276956,-4.6365062622680195,15.76568311044667,11.57716236246508,-15.957746958526622,-9.376627844741567,13.72411033173572,19.767277960886908,-7.095911221871473,-16.446267007512155,0,0,0,0,0,0,0,0,0,0,0,0,0,1789524404.4257648,0,2026-09-15T23:06:44.425,
115,10.702165845819348,-15.418820946328967,-12.242011810344788,14.368660837160936,19.00192348409661,-11.608403054448125,-13.09776804413693,5.622103995463083,22.60189159984027,-1.7772596739251143,-20.72578743910266,3.0922126747771954,18.37959842106128,3.530840765666702,-19.788071005761182,-12.297062843059743,0,0,0,0,0,0,0,0,0,0,0,0,0,1789524404.4339712,0,2026-09-15T23:06:44.433,
116,7.972111668711996,-19.071018893965164,-2.654898510948594,15.590729847124791,10.249422081713147,-14.736125755653484,-7.148946359420995,12.141902199213746,17.22073324359733,-10.22976060440366,-20.710968660294924,7.537213203677513,18.38001105173837,-10.723722569554774,-18.126664809716765,1.3694094615637828,0,0,0,0,0,0,0,0,0,0,0,0,0,1789524404.4421701,0,2026-09-15T23:06:44.442,
117,-7.735676578132166,-23.448320492137594,7.444154383812922,20.758532430746826,3.552705790901695,-15.64126082029411,-5.556919963257421,21.606899378269794,6.639044012683295,-18.064474407524823,-10.760339449142032,16.027382900052295,16.662117947573208,-13.319459525487893,-16.18696688690679,10.098275240135493,0,0,0,0,0,0,0,0,0,0,0,0,0,1789524404.4503706,0,2026-09-15T23:06:44.450,
118,-12.296294901069416,-18.564412162880462,9.419911643035448,17.369291857555538,-9.985056556490715,-19.130105611888137,3.626708121589388,25.608974384771876,1.4805175506575767,-18.624882642927034,-0.6634574632833562,26.47131282802363,4.4693199037267055,-19.632199746179186,-5.509493065688885,19.322466566553125,0,0,0,0,0,0,0,0,0,0,0,0,0,1789524404.4585557,0,2026-09-15T23:06:44.458,
119,-13.865587929869166,-9.691967559486075,23.184532982212048,9.109641265844461,-13.328114204759206,-16.696422448517264,19.142244988445572,14.418568538836361,-11.930272861286669,-14.113847791132855,13.401095534118998,14.760910539555496,-8.40096802861799,-23.205900144302397,5.38571319742344,19.3416274091498,0,0,0,0,0,0,0,0,0,0,0,0,0,1789524404.466717,0,2026-09-15T23:06:44.466,
120,-21.032591521090477,-3.8104079477167643,18.651509122389434,1.5084402755233048,-17.845749132215094,-1.1525351077855417,13.06763839215018,7.247679362221758,-19.351056371602656,-7.936972877802895,14.295232071841877,10.698204837685639,-19.15011624485287,-10.658386264555455,15.048086237038294,13.746289847495008,0,0,0,0,0,0,0,0,0,0,0,0,0,1789524404.4749053,0,2026-09-15T23:06:44.474,
121,-17.57601506210123,5.679422282251343,14.508972831417015,-3.1866065134971544,-18.680551959991472,3.0382223748709176,22.764003305833718,1.6482523523514603,-23.237382470929994,-1.8406263070890732,24.640276171379874,5.26144196336953,-22.137851568621734,-6.048794827996079,17.821016222949385,2.499850389835183,0,0,0,0,0,0,0,0,0,0,0,0,0,1789524404.483092,0,2026-09-15T23:06:44.483,
122,-19.158377993418323,13.600157920668291,11.244490885497548,-16.379648745098272,-12.9774493759341,9.908531834708104,16.112371468000372,-9.250223262736547,-14.446886293766676,9.277730289251718,17.53602752935436,-11.890296611490767,-12.634689393648326,10.465435284590871,14.995104112640302,-7.583408003867087,0,0,0,0,0,0,0,0,0,0,0,0,0,1789524404.49124,0,2026-09-15T23:06:44.491,
123,-5.686818274665777,19.74305635212454,13.775021973986881,-13.979583709770107,-10.360234706498272,17.609286981638487,5.346973033501278,-16.897465580030712,-9.18201030339529,25.514123681247522,10.365189345343964,-23.430290265826248,-12.519752059339655,17.22360614461551,7.1598410569071875,-19.213541036070996,0,0,0,0,0,0,0,0,0,0,0,0,0,1789524404.4994376,0,2026-09-15T23:06:44.499,
124,-1.09690742468435,21.025434903396835,-0.4960260336368806,-22.667697462340804,2.3630437034853258,18.381087651426377,-1.4979265302351934,-24.138954775853854,-2.3580472246856354,21.95531478765546,-4.852965475601278,-20.21352108390113,2.153175069824448,18.868674178615237,0.7193715552150168,-23.350382034148776,0,0,0,0,0,0,0,0,0,0,0,0,0,1789524404.5076263,0,2026-09-15T23:06:44.507,
125,11.758307043298306,21.607974460726627,-7.581014370315787,-23.36177762906817,5.604428319927431,20.806937668819312,-4.0522339415935225,-16.755978208744118,13.377030284141306,15.580389983125936,-10.640625502547874,-17.147089413183146,11.772782860430642,12.300129738705552,-8.105886407070503,-12.644278050815853,0,0,0,0,0,0,0,0,0,0,0,0,0,1789524404.5158014,0,2026-09-15T23:06:44.515,
126,10.959975051238217,9.440637148640963,-14.033347270869285,-14.711415513311177,8.613279594938712,14.383850209226491,-15.860001763640495,-12.567453323187308,23.2268913881725,10.705503430669122,-19.66396527430618,-9.110623207005622,14.756620680732532,6.230465509179226,-17.14573504604274,-9.258176529072779,0,0,0,0,0,0,0,0,0,0,0,0,0,1789524404.523988,0,2026-09-15T23:06:44.523,
127,17.33365662722155,11.425706778666525,-16.591489430788364,-2.5653202829766517,21.131812577958517,4.953065864678147,-15.439473817211594,-2.0658722549498467,25.527076943264774,-2.3516030950199456,-20.763533947240056,-3.1309027205322453,18.891353123784643,-0.9513373724228762,-15.379978216481813,2.004216995697403,0,0,0,0,0,0,0,0,0,0,0,0,0,1789524404.5321841,0,2026-09-15T23:06:44.532,
128,20.001702873609073,-2.8346551305197405,-22.0250283362877,0.17948793107250927,19.614618154198894,-10.89658025070509,-18.528181265383814,7.658437716899184,16.123290152548737,-12.446789353036396,-21.30345496870023,16.751497562697033,12.005423504851109,-8.075372716323422,-12.949768067561035,13.138650639331031,0,0,0,0,0,0,0,0,0,0,0,0,0,1789524404.540418,0,2026-09-15T23:06:44.540,
129,14.625310518155379,-6.5075929914543265,-11.697604919814028,8.953631819420035,14.514029237874505,-10.536070824192699,-12.683592038493323,21.41014772398424,10.045271697435467,-15.259684884931719,-13.387857391859178,24.384216240817455,5.171468616829008,-25.645031413788672,-5.35108980707601,19.22745315123385,0,0,0,0,0,0,0,0,0,0,0,0,0,1789524404.5486326,0,2026-09-15T23:06:44.548,
130,19.066951886370447,-16.89626690910795,-10.965818167111578,19.306450216615566,13.046323669194141,-18.964365996315895,-2.3406050295829792,21.1513548118679,1.6179586670003057,-19.74207580614711,0.5886235454370388,17.150946432473418,0.14058108383283763,-23.52852398057713,9.93237896379648,21.26789493469107,0,0,0,0,0,0,0,0,0,0,0,0,0,1789524404.5568328,0,2026-09-15T23:06:44.556,
131,6.139724421904591,-21.728967700714716,-3.683787039400708,21.378858542551015,1.7265734092250524,-19.011469319780673,6.970608618710585,17.498132064265135,-6.6587618581935955,-22.58186591563374,12.794372575738091,16.490868453272352,-14.566959880209076,-10.206314862416011,17.80034708912187,2.4787042094530456,0,0,0,0,0,0,0,0,0,0,0,0,0,1789524404.5650275,0,2026-09-15T23:06:44.565,
132,-1.3868863657566495,-24.056358680767467,8.659018333751611,26.0627541864795,-10.747197744575786,-16.526823343337018,11.800726504088187,15.283152880846373,-13.476617808689412,-7.275930520142999,14.68356052520579,12.310486345906906,-21.964977348478342,-2.9163601936044605,23.398402101593515,1.8882754175268048,0,0,0,0,0,0,0,0,0,0,0,0,0,1789524404.5732296,0,2026-09-15T23:06:44.573,
133,-12.007322035394813,-18.717688834389804,11.554126523195348,13.537434275196077,-12.590479952461322,-13.947898345220567,19.704927966256555,7.770748928059205,-17.970878848100636,-0.10761710718479378,24.54074381677153,-1.5410867523164073,-16.736755042985617,9.0531305684757,23.025163026883977,-17.04479320122384,0,0,0,0,0,0,0,0,0,0,0,0,0,1789524404.5814154,0,2026-09-15T23:06:44.581,
134,-11.563939124157972,-11.499628222340174,17.25439046801128,3.271909657819727,-25.25183141859425,-2.401494933258928,17.89865464001213,-2.265104353332336,-23.43791774471535,12.810425369933792,17.702360039683406,-13.492187869566164,-15.81921216613144,13.81871872114159,6.244811988172401,-20.22861189248656,0,0,0,0,0,0,0,0,0,0,0,0,0,1789524404.5895984,0,2026-09-15T23:06:44.589,
135,-19.152284535663988,-3.536602130745812,15.754957262661964,-3.3041493944171867,-21.987181522676714,8.307119891930299,22.744488749485456,-10.67875914347422,-14.630301935040116,11.452135493920217,4.947424286393241,-23.919980694284373,-1.8162942200857177,17.66532651843342,-1.3187353331858283,-21.41140501899105,0,0,0,0,0,0,0,0,0,0,0,0,0,1789524404.597787,0,2026-09-15T23:06:44.597,
136,-19.598636584779637,9.421861518466354,16.249985656066148,-11.739401917264379,-17.504059348712822,17.872574930787053,7.426341029483322,-21.80358668084435,-9.136786640011856,15.673599797055248,0.40779665241863583,-11.889725987219531,3.906729514269259,20.38077107079615,-11.405284828875034,-17.17913381501201,0,0,0,0,0,0,0,0,0,0,0,0,0,1789524404.6059723,0,2026-09-15T23:06:44.605,
137,-18.23377374347148,11.85507719880173,11.248131673814008,-11.094737888902676,-13.545835045715485,20.575744002854705,2.5011095524596927,-21.66152077750868,5.4223063394233,20.937638358506106,-10.469681528366362,-13.498286379541355,17.80450444254874,3.5389055107846046,-14.424676341442328,3.334450730817939,0,0,0,0,0,0,0,0,0,0,0,0,0,1789524404.614149,0,2026-09-15T23:06:44.614,
138,-9.21622079274313,20.803722874459027,1.7160906995905565,-20.197579131830004,-1.431245074326672,17.728954674711247,-4.926362609844491,-19.162262562563914,13.300638240488093,6.232357497005312,-18.352124488742078,-5.430334969742455,17.75785558598396,-3.415470788899618,-13.77336600034276,4.428895856558692,0,0,0,0,0,0,0,0,0,0,0,0,0,1789524404.6223395,0,2026-09-15T23:06:44.622,
139,-8.125648871998134,17.533503142660653,1.0897923965584573,-12.716502994437842,10.631601037272407,13.258310807694276,-16.69346193893626,-6.440636529582852,16.287926689164546,6.865504552952885,-15.710800015917258,5.18442178871796,20.03493095724831,-9.506467202355145,-9.028311770095154,13.732203264030687,0,0,0,0,0,0,0,0,0,0,0,0,0,1789524404.6305134,0,2026-09-15T23:06:44.630,
140,6.548125733963143,17.64899314816158,-12.80677554995244,-14.271355252843675,15.683752154583388,5.09564977913694,-24.33735375576894,-3.077605491373015,24.00281669156206,-1.7078734000944342,-14.66156864584405,17.78848993892028,9.3773880379145,-18.82698474301027,-2.652166982665806,16.74981503094845,0,0,0,0,0,0,0,0,0,0,0,0,0,1789524404.638704,0,2026-09-15T23:06:44.638,
141,7.533660098644734,14.697712417873785,-17.572829764639472,-10.553161392311356,20.89331527197619,-1.7947242650243267,-16.243570924086892,9.176053906976112,14.509345478157105,-15.34274908868938,-9.258265695015403,17.428496515219187,-0.7032663483791342,-17.397487888611412,9.767023487140577,20.185468442436004,0,0,0,0,0,0,0,0,0,0,0,0,0,1789524404.6468725,0,2026-09-15T23:06:44.646,
142,11.247803184504548,6.416309873666142,-20.97744491930502,1.7711279275095166,17.81396400664793,-11.39409585395179,-12.401337576793283,17.00491449857677,3.863398986254893,-15.769515931292887,4.496792261484342,17.375411954426774,-7.578622786456881,-16.784862268287508,19.989013215307367,6.474743854000658,0,0,0,0,0,0,0,0,0,0,0,0,0,1789524404.6550562,0,2026-09-15T23:06:44.655,
143,17.136835285095827,-1.6219150963167912,-21.605123888116474,10.211492470012,15.275578048377152,-16.504509088081672,-8.562704800475663,8.888980779779759,-2.2281578253175987,-24.375281982943104,12.077944037242181,16.712618567851926,-16.824167612944667,-6.1421075281499995,19.458788072505065,-4.884603099728146,0,0,0,0,0,0,0,0,0,0,0,0,0,1789524404.6632338,0,2026-09-15T23:06:44.663,
144,17.998020136638633,-10.266954311978369,-18.181952749320992,19.744826627490077,7.315831234129271,-16.973479839208256,1.756511543650991,18.81203296795836,-12.266852985299957,-11.359971629892273,20.57644800778162,4.466740155604798,-21.981983064471592,3.8404784066497237,21.86407012374281,-15.419485575070594,0,0,0,0,0,0,0,0,0,0,0,0,0,1789524404.671418,0,2026-09-15T23:06:44.671,
145,15.738611533145876,-10.690005391029992,-5.478731869194409,21.24725882836391,-2.7047257168020207,-11.800217941844696,12.524300345364948,14.582075667303416,-18.60985944431703,-7.743383508739175,15.918385987792185,-5.67192388828055,-15.151296723979794,14.69026988360089,4.772460241500658,-24.058692471837926,0,0,0,0,0,0,0,0,0,0,0,0,0,1789524404.6795852,0,2026-09-15T23:06:44.679,
146,9.944334941711807,-23.46567469088039,2.1941440989768184,22.829657567972838,-1.58536154343523,-11.238113761053732,15.867275714106583,1.6251472407260805,-30.31571883534425,4.871723474953702,15.79586338252534,-12.665824260235361,-5.992672877183266,21.607343247428844,-2.3636289727681743,-16.219389322402343,0,0,0,0,0,0,0,0,0,0,0,0,0,1789524404.6877666,0,2026-09-15T23:06:44.687,
147,7.843261183897472,-23.066856876938154,6.455572182556558,11.244670161072762,-11.75593705421321,-2.050224261856669,22.255273374518666,-9.054692968917522,-16.36772409955365,14.381109535452298,8.529992765629046,-20.373582902769037,4.564370256742615,16.912021442394774,-10.756525830413024,-9.77930802446628,0,0,0,0,0,0,0,0,0,0,0,0,0,1789524404.69593,0,2026-09-15T23:06:44.695,
