%OpenBCI Raw EXG Data
%Number of channels = 16
%Sample Rate = 125 Hz
%Board = OpenBCI_GUI$BoardCytonSerialDaisy
Sample Index,EXG Channel 0,EXG Channel 1,EXG Channel 2,EXG Channel 3,EXG Channel 4,EXG Channel 5,EXG Channel 6,EXG Channel 7,EXG Channel 8,EXG Channel 9,EXG Channel 10,EXG Channel 11,EXG Channel 12,EXG Channel 13,EXG Channel 14,EXG Channel 15,Accel Channel 0,Accel Channel 1,Accel Channel 2,Other,Other,Other,Other,Other,Other,Other,Analog Channel 0,Analog Channel 1,Analog Channel 2,Timestamp,Other,Timestamp (Formatted),Annotations
1,0,0,0,0,0,0,0,0,0,0,0,0,0,0,0,0,0,0,0,0,0,0,0,0,0,0,0,0,0,0.0,0,2025-05-31 12:16:28.322919,T0
2,-38.779998779296875,-19.469999313354492,-4.260000228881836,-0.4399999976158142,-3.494999885559082,-14.920000076293945,-7.949999809265137,15.520000457763672,12.229999542236328,-19.959999084472656,2.694999933242798,-17.93000030517578,-18.450000762939453,-23.18000030517578,-33.290000915527344,-44.93000030517578,0,0,0,0,0,0,0,0,0,0,0,0,0,5.390873,0,2025-05-31 12:16:33.713792,
3,-3.5409998893737793,-10.819999694824219,28.670000076293945,27.200000762939453,23.170000076293945,9.519000053405762,14.119999885559082,24.709999084472656,33.400001525878906,-15.770000457763672,21.299999237060547,15.75,4.093999862670898,-17.829999923706055,-2.255000114440918,-15.8100004196167,0,0,0,0,0,0,0,0,0,0,0,0,0,5.390873,0,2025-05-31 12:16:33.713792,
4,0.0,0.0,-0.0,0.0,-0.0,-0.0,0.0,0.0,0.0,0.0,0.0,0.0,-0.0,0.0,0.0,0.0,0,0,0,0,0,0,0,0,0,0,0,0,0,5.390873,0,2025-05-31 12:16:33.713792,
5,-37.70000076293945,-42.869998931884766,-95.7300033569336,-71.36000061035156,-68.01000213623047,-69.69000244140625,-66.38999938964844,-52.66999816894531,-90.0999984741211,22.260000228881836,-34.119998931884766,-39.619998931884766,-22.610000610351562,-19.399999618530273,13.300000190734863,8.071000099182129,0,0,0,0,0,0,0,0,0,0,0,0,0,5.390873,0,2025-05-31 12:16:33.713792,
6,-64.08999633789062,-48.720001220703125,-102.0,-80.58000183105469,-81.87000274658203,-80.95999908447266,-84.25,-52.2599983215332,-72.11000061035156,15.699999809265137,-35.099998474121094,-37.279998779296875,-13.300000190734863,-9.833999633789062,10.489999771118164,8.642999649047852,0,0,0,0,0,0,0,0,0,0,0,0,0,5.390873,0,2025-05-31 12:16:33.713792,
7,-66.97000122070312,-58.06999969482422,-82.9000015258789,-76.54000091552734,-70.54000091552734,-75.93000030517578,-80.51000213623047,-38.849998474121094,-59.25,2.302000045776367,-36.029998779296875,-33.970001220703125,-8.392000198364258,-9.67300033569336,-11.59000015258789,2.6570000648498535,0,0,0,0,0,0,0,0,0,0,0,0,0,5.43114,0,2025-05-31 12:16:33.754059,
8,-48.59000015258789,-61.529998779296875,-74.69000244140625,-78.2300033569336,-61.33000183105469,-66.19999694824219,-71.87999725341797,-48.22999954223633,-82.05000305175781,-5.499000072479248,-43.310001373291016,-37.7599983215332,-13.649999618530273,-23.65999984741211,-26.700000762939453,4.764999866485596,0,0,0,0,0,0,0,0,0,0,0,0,0,5.43114,0,2025-05-31 12:16:33.754059,
9,-45.5,-50.650001525878906,-77.77999877929688,-86.91999816894531,-67.08999633789062,-60.11000061035156,-72.37999725341797,-74.66000366210938,-83.12999725341797,4.47599983215332,-56.150001525878906,-44.68000030517578,-25.81999969482422,-38.27000045776367,-33.83000183105469,4.077000141143799,0,0,0,0,0,0,0,0,0,0,0,0,0,5.43114,0,2025-05-31 12:16:33.754059,
10,-61.279998779296875,-54.5099983215332,-93.91999816894531,-102.4000015258789,-81.7699966430664,-66.13999938964844,-78.08999633789062,-85.61000061035156,-83.27999877929688,32.83000183105469,-53.38999938964844,-36.209999084472656,-19.780000686645508,-23.579999923706055,-32.959999084472656,8.399999618530273,0,0,0,0,0,0,0,0,0,0,0,0,0,5.43114,0,2025-05-31 12:16:33.754059,
11,-38.7400016784668,-33.40999984741211,-69.87000274658203,-71.11000061035156,-60.279998779296875,-34.06999969482422,-43.61000061035156,-49.220001220703125,-57.709999084472656,37.040000915527344,5.681000232696533,19.40999984741211,34.47999954223633,41.40999984741211,9.265999794006348,61.470001220703125,0,0,0,0,0,0,0,0,0,0,0,0,0,5.43114,0,2025-05-31 12:16:33.754059,
12,9.734999656677246,9.293999671936035,-27.350000381469727,-18.649999618530273,-21.940000534057617,3.305000066757202,-7.763000011444092,-14.380000114440918,-6.9120001792907715,22.610000610351562,52.06999969482422,48.63999938964844,54.130001068115234,63.310001373291016,62.88999938964844,121.5,0,0,0,0,0,0,0,0,0,0,0,0,0,5.4748,0,2025-05-31 12:16:33.797719,
13,12.020000457763672,-0.38449999690055847,-39.25,-19.829999923706055,-26.020000457763672,-19.239999771118164,-29.739999771118164,-33.810001373291016,-18.1299991607666,28.790000915527344,36.4900016784668,19.079999923706055,14.170000076293945,12.020000457763672,69.41000366210938,112.5999984741211,0,0,0,0,0,0,0,0,0,0,0,0,0,5.4748,0,2025-05-31 12:16:33.797719,
14,-7.855000019073486,-26.290000915527344,-65.11000061035156,-42.83000183105469,-44.59000015258789,-42.150001525878906,-51.16999816894531,-60.18000030517578,-49.2599983215332,34.95000076293945,36.75,18.329999923706055,14.609999656677246,2.4690001010894775,55.27000045776367,76.1500015258789,0,0,0,0,0,0,0,0,0,0,0,0,0,5.4748,0,2025-05-31 12:16:33.797719,
15,1.7480000257492065,-10.699999809265137,-59.560001373291016,-43.81999969482422,-39.08000183105469,-27.190000534057617,-35.29999923706055,-51.099998474121094,-27.309999465942383,29.65999984741211,50.5099983215332,34.529998779296875,38.45000076293945,34.06999969482422,52.13999938964844,75.16000366210938,0,0,0,0,0,0,0,0,0,0,0,0,0,5.4748,0,2025-05-31 12:16:33.797719,
16,9.543999671936035,4.73799991607666,-51.369998931884766,-33.66999816894531,-33.400001525878906,-18.25,-26.020000457763672,-34.099998474121094,-34.40999984741211,30.0,22.459999084472656,12.65999984741211,22.020000457763672,25.049999237060547,41.93000030517578,84.33000183105469,0,0,0,0,0,0,0,0,0,0,0,0,0,5.4748,0,2025-05-31 12:16:33.797719,
17,-7.997000217437744,-1.6009999513626099,-55.13999938964844,-28.719999313354492,-39.209999084472656,-23.469999313354492,-32.400001525878906,-35.560001373291016,-80.83000183105469,19.3700008392334,-0.2583000063896179,-6.660999774932861,5.315000057220459,4.050000190734863,27.049999237060547,68.48999786376953,0,0,0,0,0,0,0,0,0,0,0,0,0,5.522083,0,2025-05-31 12:16:33.845002,
18,-26.8700008392334,-10.359999656677246,-62.95000076293945,-44.06999969482422,-40.43000030517578,-29.200000762939453,-38.20000076293945,-42.97999954223633,-58.20000076293945,11.989999771118164,16.239999771118164,0.8607000112533569,13.470000267028809,12.699999809265137,27.600000381469727,43.72999954223633,0,0,0,0,0,0,0,0,0,0,0,0,0,5.522083,0,2025-05-31 12:16:33.845002,
19,-22.739999771118164,-11.899999618530273,-64.66999816894531,-55.72999954223633,-33.369998931884766,-27.700000762939453,-35.88999938964844,-26.950000762939453,-1.343999981880188,44.04999923706055,41.959999084472656,23.559999465942383,36.45000076293945,33.66999816894531,48.79999923706055,48.349998474121094,0,0,0,0,0,0,0,0,0,0,0,0,0,5.522083,0,2025-05-31 12:16:33.845002,
20,10.760000228881836,8.87399959564209,-62.33000183105469,-39.95000076293945,-23.1299991607666,-13.130000114440918,-21.860000610351562,4.127999782562256,1.9800000190734863,79.62000274658203,60.869998931884766,50.09000015258789,62.15999984741211,44.84000015258789,80.29000091552734,83.31999969482422,0,0,0,0,0,0,0,0,0,0,0,0,0,5.522083,0,2025-05-31 12:16:33.845002,
21,34.93000030517578,35.84000015258789,-68.0999984741211,-29.829999923706055,-10.5600004196167,-4.599999904632568,-15.579999923706055,11.180000305175781,-7.749000072479248,88.41999816894531,60.29999923706055,44.02000045776367,54.43000030517578,33.86000061035156,92.79000091552734,101.30000305175781,0,0,0,0,0,0,0,0,0,0,0,0,0,5.522083,0,2025-05-31 12:16:33.845002,
22,12.210000038146973,30.899999618530273,-80.70999908447266,-41.38999938964844,-20.09000015258789,-18.6299991607666,-30.670000076293945,-6.374000072479248,-24.1299991607666,86.66000366210938,40.560001373291016,9.456999778747559,25.200000762939453,17.31999969482422,71.91000366210938,84.16000366210938,0,0,0,0,0,0,0,0,0,0,0,0,0,5.568829,0,2025-05-31 12:16:33.891748,
23,-22.479999542236328,6.570000171661377,-110.4000015258789,-70.33000183105469,-76.0199966430664,-44.290000915527344,-53.619998931884766,-29.81999969482422,-70.5,56.20000076293945,33.290000915527344,2.312000036239624,24.75,21.389999389648438,44.119998931884766,65.19000244140625,0,0,0,0,0,0,0,0,0,0,0,0,0,5.568829,0,2025-05-31 12:16:33.891748,
24,-26.190000534057617,-3.3469998836517334,-141.8000030517578,-108.5,-106.9000015258789,-60.84000015258789,-69.72000122070312,-52.59000015258789,-64.47000122070312,15.010000228881836,43.189998626708984,19.190000534057617,36.25,30.219999313354492,36.06999969482422,61.45000076293945,0,0,0,0,0,0,0,0,0,0,0,0,0,5.568829,0,2025-05-31 12:16:33.891748,
25,-22.389999389648438,-7.177999973297119,-123.19999694824219,-103.5999984741211,-54.33000183105469,-61.150001525878906,-73.36000061035156,-53.22999954223633,-19.579999923706055,25.139999389648438,31.09000015258789,1.99399995803833,16.219999313354492,16.760000228881836,36.599998474121094,56.0,0,0,0,0,0,0,0,0,0,0,0,0,0,5.568829,0,2025-05-31 12:16:33.891748,
26,-47.33000183105469,-25.270000457763672,-88.1500015258789,-54.43000030517578,-21.31999969482422,-58.47999954223633,-70.43000030517578,-27.920000076293945,-46.15999984741211,39.93000030517578,-9.96500015258789,-38.16999816894531,-15.210000038146973,-4.36299991607666,21.6299991607666,36.15999984741211,0,0,0,0,0,0,0,0,0,0,0,0,0,5.568829,0,2025-05-31 12:16:33.891748,
27,-69.62999725341797,-36.54999923706055,-92.52999877929688,-31.450000762939453,-54.77000045776367,-51.619998931884766,-61.43000030517578,-7.796999931335449,-81.04000091552734,10.1899995803833,-22.149999618530273,-30.899999618530273,-11.640000343322754,1.5140000581741333,5.156000137329102,23.219999313354492,0,0,0,0,0,0,0,0,0,0,0,0,0,5.614758,0,2025-05-31 12:16:33.937677,
28,-41.15999984741211,-19.34000015258789,-90.88999938964844,-34.959999084472656,-51.779998779296875,-32.849998474121094,-44.06999969482422,-5.126999855041504,-55.13999938964844,12.949999809265137,15.970000267028809,11.680000305175781,18.6200008392334,26.959999084472656,19.81999969482422,45.11000061035156,0,0,0,0,0,0,0,0,0,0,0,0,0,5.614758,0,2025-05-31 12:16:33.937677,
29,-8.951000213623047,-7.423999786376953,-77.30999755859375,-37.779998779296875,-27.600000381469727,-33.47999954223633,-47.5099983215332,-20.149999618530273,-52.79999923706055,42.779998779296875,32.65999984741211,11.050000190734863,26.489999771118164,27.670000076293945,46.54999923706055,78.33999633789062,0,0,0,0,0,0,0,0,0,0,0,0,0,5.614758,0,2025-05-31 12:16:33.937677,
30,-36.72999954223633,-23.829999923706055,-104.80000305175781,-59.529998779296875,-59.029998779296875,-60.849998474121094,-73.18000030517578,-44.310001373291016,-74.81999969482422,18.389999389648438,-7.349999904632568,-25.139999389648438,14.029999732971191,12.600000381469727,39.16999816894531,85.44999694824219,0,0,0,0,0,0,0,0,0,0,0,0,0,5.614758,0,2025-05-31 12:16:33.937677,
31,-64.2699966430664,-24.18000030517578,-119.4000015258789,-66.36000061035156,-72.19999694824219,-52.47999954223633,-58.75,-32.849998474121094,-61.08000183105469,28.559999465942383,-42.279998779296875,-29.649999618530273,28.3700008392334,27.31999969482422,4.913000106811523,81.38999938964844,0,0,0,0,0,0,0,0,0,0,0,0,0,5.614758,0,2025-05-31 12:16:33.937677,
32,-33.060001373291016,8.574000358581543,-78.38999938964844,-29.299999237060547,-35.130001068115234,-9.486000061035156,-15.050000190734863,3.640000104904175,-57.34000015258789,110.5999984741211,-50.2400016784668,-18.56999969482422,42.09000015258789,34.310001373291016,-19.540000915527344,79.27999877929688,0,0,0,0,0,0,0,0,0,0,0,0,0,5.667078,0,2025-05-31 12:16:33.989997,
33,-20.43000030517578,7.63100004196167,-76.25,-30.979999542236328,-43.650001525878906,-26.06999969482422,-34.72999954223633,-17.09000015258789,-96.73999786376953,63.63999938964844,-67.69000244140625,-44.77000045776367,-0.8237000107765198,-6.354000091552734,-30.18000030517578,55.25,0,0,0,0,0,0,0,0,0,0,0,0,0,5.667078,0,2025-05-31 12:16:33.989997,
34,-69.25,-45.029998779296875,-132.8000030517578,-84.33999633789062,-91.12000274658203,-90.6500015258789,-94.66999816894531,-67.73999786376953,-132.5,-87.8499984741211,-75.86000061035156,-72.81999969482422,-37.29999923706055,-18.280000686645508,-35.84000015258789,19.5,0,0,0,0,0,0,0,0,0,0,0,0,0,5.667078,0,2025-05-31 12:16:33.989997,
35,-97.7699966430664,-62.279998779296875,-149.0,-87.5999984741211,-100.5999984741211,-101.9000015258789,-99.08000183105469,-51.0,-128.5,-67.19999694824219,-57.84000015258789,-60.52000045776367,-12.260000228881836,19.479999542236328,-35.849998474121094,8.4399995803833,0,0,0,0,0,0,0,0,0,0,0,0,0,5.667078,0,2025-05-31 12:16:33.989997,
36,-85.13999938964844,-26.889999389648438,-132.1999969482422,-61.470001220703125,-96.6500015258789,-84.93000030517578,-81.04000091552734,-12.420000076293945,-107.80000305175781,49.20000076293945,-55.61000061035156,-50.060001373291016,0.005200000014156103,18.68000030517578,-36.349998474121094,14.800000190734863,0,0,0,0,0,0,0,0,0,0,0,0,0,5.667078,0,2025-05-31 12:16:33.989997,
37,-91.8499984741211,-19.56999969482422,-151.60000610351562,-87.87000274658203,-116.19999694824219,-106.4000015258789,-100.0999984741211,-28.219999313354492,-118.30000305175781,31.90999984741211,-71.66000366210938,-61.58000183105469,-16.780000686645508,-3.611999988555908,-37.7599983215332,24.5,0,0,0,0,0,0,0,0,0,0,0,0,0,5.710044,0,2025-05-31 12:16:34.032963,
38,-112.5999984741211,-38.33000183105469,-169.60000610351562,-113.0,-131.10000610351562,-124.69999694824219,-111.9000015258789,-45.68000030517578,-141.89999389648438,12.9399995803833,-85.5999984741211,-66.33999633789062,-6.906000137329102,15.670000076293945,-32.650001525878906,47.630001068115234,0,0,0,0,0,0,0,0,0,0,0,0,0,5.710044,0,2025-05-31 12:16:34.032963,
39,-114.69999694824219,-34.630001068115234,-150.6999969482422,-92.1500015258789,-127.0999984741211,-115.19999694824219,-98.5,-33.15999984741211,-130.39999389648438,81.27999877929688,-99.26000213623047,-64.87999725341797,0.257099986076355,27.75,-29.739999771118164,64.72000122070312,0,0,0,0,0,0,0,0,0,0,0,0,0,5.710044,0,2025-05-31 12:16:34.032963,
40,-97.33000183105469,-25.420000076293945,-136.3000030517578,-73.69999694824219,-111.9000015258789,-102.9000015258789,-85.91000366210938,-30.479999542236328,-110.9000015258789,72.48999786376953,-83.36000061035156,-52.040000915527344,-3.747999906539917,15.229999542236328,-26.989999771118164,58.720001220703125,0,0,0,0,0,0,0,0,0,0,0,0,0,5.710044,0,2025-05-31 12:16:34.032963,
41,-61.02000045776367,-13.6899995803833,-131.3000030517578,-65.70999908447266,-97.5199966430664,-83.77999877929688,-65.19999694824219,-31.739999771118164,-116.80000305175781,17.690000534057617,-50.09000015258789,-26.559999465942383,20.420000076293945,21.360000610351562,-5.802999973297119,63.310001373291016,0,0,0,0,0,0,0,0,0,0,0,0,0,5.710044,0,2025-05-31 12:16:34.032963,
42,-41.52000045776367,2.9860000610351562,-119.80000305175781,-63.08000183105469,-104.5,-75.61000061035156,-55.220001220703125,-28.809999465942383,-123.69999694824219,21.8700008392334,-56.40999984741211,-25.40999984741211,26.25,17.440000534057617,13.449999809265137,79.41000366210938,0,0,0,0,0,0,0,0,0,0,0,0,0,5.761727,0,2025-05-31 12:16:34.084646,
43,-58.689998626708984,-11.34000015258789,-118.4000015258789,-75.52999877929688,-111.30000305175781,-89.77999877929688,-69.66999816894531,-40.939998626708984,-113.4000015258789,5.065000057220459,-60.540000915527344,-29.959999084472656,3.2920000553131104,-1.597000002861023,4.7129998207092285,73.31999969482422,0,0,0,0,0,0,0,0,0,0,0,0,0,5.761727,0,2025-05-31 12:16:34.084646,
44,-53.06999969482422,-29.709999084472656,-119.9000015258789,-71.54000091552734,-93.68000030517578,-86.7699966430664,-65.79000091552734,-46.560001373291016,-101.69999694824219,-6.10099983215332,-28.770000457763672,-4.047999858856201,21.829999923706055,23.719999313354492,0.22859999537467957,75.27999877929688,0,0,0,0,0,0,0,0,0,0,0,0,0,5.761727,0,2025-05-31 12:16:34.084646,
45,-26.1299991607666,-11.239999771118164,-111.30000305175781,-52.91999816894531,-91.18000030517578,-75.1500015258789,-53.900001525878906,-37.869998931884766,-113.0,55.83000183105469,-36.709999084472656,-0.4657000005245209,41.939998626708984,54.099998474121094,18.489999771118164,105.69999694824219,0,0,0,0,0,0,0,0,0,0,0,0,0,5.761727,0,2025-05-31 12:16:34.084646,
46,-42.630001068115234,-6.4679999351501465,-107.30000305175781,-52.63999938964844,-108.5,-82.37999725341797,-62.27000045776367,-42.720001220703125,-130.10000610351562,65.33000183105469,-84.33000183105469,-39.0,1.6440000534057617,18.59000015258789,18.739999771118164,102.0,0,0,0,0,0,0,0,0,0,0,0,0,0,5.761727,0,2025-05-31 12:16:34.084646,
47,-71.47000122070312,-33.90999984741211,-105.19999694824219,-53.349998474121094,-102.9000015258789,-78.19999694824219,-56.599998474121094,-46.52000045776367,-114.4000015258789,9.057000160217285,-94.0999984741211,-53.93000030517578,-29.809999465942383,-23.8700008392334,-8.378000259399414,53.2400016784668,0,0,0,0,0,0,0,0,0,0,0,0,0,5.808349,0,2025-05-31 12:16:34.131268,
48,-68.22000122070312,-39.599998474121094,-100.80000305175781,-51.97999954223633,-94.04000091552734,-66.08000183105469,-43.630001068115234,-39.0,-91.75,14.430000305175781,-69.73999786376953,-36.86000061035156,-15.430000305175781,-15.819999694824219,-22.399999618530273,26.75,0,0,0,0,0,0,0,0,0,0,0,0,0,5.808349,0,2025-05-31 12:16:34.131268,
49,-61.630001068115234,-22.81999969482422,-104.5999984741211,-56.54999923706055,-98.19999694824219,-72.66000366210938,-51.18000030517578,-40.56999969482422,-94.70999908447266,37.880001068115234,-44.779998779296875,-27.059999465942383,-8.699999809265137,-3.065000057220459,-10.699999809265137,32.099998474121094,0,0,0,0,0,0,0,0,0,0,0,0,0,5.808349,0,2025-05-31 12:16:34.131268,
50,-58.599998474121094,-17.170000076293945,-107.80000305175781,-42.33000183105469,-88.20999908447266,-73.45999908447266,-52.7400016784668,-37.02000045776367,-102.0,10.5600004196167,-35.619998931884766,-25.139999389648438,-17.229999542236328,-10.479999542236328,5.10099983215332,33.880001068115234,0,0,0,0,0,0,0,0,0,0,0,0,0,5.808349,0,2025-05-31 12:16:34.131268,
51,-59.130001068115234,-24.280000686645508,-112.0,-38.40999984741211,-87.68000030517578,-76.23999786376953,-57.130001068115234,-32.47999954223633,-111.5999984741211,-11.680000305175781,-58.72999954223633,-25.770000457763672,-21.68000030517578,-18.829999923706055,6.935999870300293,33.029998779296875,0,0,0,0,0,0,0,0,0,0,0,0,0,5.808349,0,2025-05-31 12:16:34.131268,
52,-72.72000122070312,-34.470001220703125,-128.39999389648438,-71.91999816894531,-106.0,-101.80000305175781,-81.37000274658203,-51.689998626708984,-115.80000305175781,8.529999732971191,-73.9000015258789,-28.90999984741211,-22.079999923706055,-23.760000228881836,-7.635000228881836,30.5,0,0,0,0,0,0,0,0,0,0,0,0,0,5.85151,0,2025-05-31 12:16:34.174429,
53,-62.709999084472656,-28.809999465942383,-126.19999694824219,-76.9800033569336,-88.80000305175781,-100.69999694824219,-78.9000015258789,-57.900001525878906,-85.38999938964844,59.66999816894531,-45.720001220703125,-23.510000228881836,-7.065999984741211,-18.239999771118164,-22.360000610351562,12.600000381469727,0,0,0,0,0,0,0,0,0,0,0,0,0,5.85151,0,2025-05-31 12:16:34.174429,
54,-25.809999465942383,-5.10699987411499,-91.08000183105469,-39.130001068115234,-45.83000183105469,-69.54000091552734,-51.540000915527344,-42.77000045776367,-55.29999923706055,73.18000030517578,-24.1200008392334,-13.09000015258789,13.470000267028809,-5.5980000495910645,-22.030000686645508,-2.509999990463257,0,0,0,0,0,0,0,0,0,0,0,0,0,5.85151,0,2025-05-31 12:16:34.174429,
55,-15.770000457763672,2.2079999446868896,-76.87000274658203,-28.059999465942383,-39.7400016784668,-69.4800033569336,-52.72999954223633,-52.650001525878906,-64.20999908447266,17.559999465942383,-36.68000030517578,-13.529999732971191,13.09000015258789,-1.7710000276565552,-13.079999923706055,13.15999984741211,0,0,0,0,0,0,0,0,0,0,0,0,0,5.85151,0,2025-05-31 12:16:34.174429,
56,-35.95000076293945,-10.5,-102.30000305175781,-48.400001525878906,-66.55999755859375,-86.81999969482422,-68.5199966430664,-65.19999694824219,-78.63999938964844,5.066999912261963,-45.86000061035156,-26.079999923706055,2.821000099182129,-0.977400004863739,-4.2829999923706055,46.81999969482422,0,0,0,0,0,0,0,0,0,0,0,0,0,5.85151,0,2025-05-31 12:16:34.174429,
57,-50.880001068115234,-16.709999084472656,-111.0999984741211,-58.310001373291016,-76.72000122070312,-84.9800033569336,-68.01000213623047,-53.66999816894531,-74.01000213623047,33.25,-38.20000076293945,-37.15999984741211,-7.281000137329102,-9.875,5.0229997634887695,62.13999938964844,0,0,0,0,0,0,0,0,0,0,0,0,0,5.897499,0,2025-05-31 12:16:34.220418,
58,-53.86000061035156,-26.360000610351562,-95.70999908447266,-58.27000045776367,-61.689998626708984,-87.33999633789062,-72.05000305175781,-57.63999938964844,-79.30999755859375,-5.789999961853027,-41.709999084472656,-47.09000015258789,-32.040000915527344,-41.880001068115234,2.7330000400543213,42.189998626708984,0,0,0,0,0,0,0,0,0,0,0,0,0,5.897499,0,2025-05-31 12:16:34.220418,
59,-63.41999816894531,-51.33000183105469,-103.9000015258789,-60.689998626708984,-60.09000015258789,-98.83999633789062,-84.83999633789062,-74.87999725341797,-100.80000305175781,-18.15999984741211,-68.38999938964844,-64.16999816894531,-54.04999923706055,-60.16999816894531,-24.520000457763672,5.4120001792907715,0,0,0,0,0,0,0,0,0,0,0,0,0,5.897499,0,2025-05-31 12:16:34.220418,
60,-79.93000030517578,-62.52000045776367,-113.80000305175781,-54.849998474121094,-72.5199966430664,-93.3499984741211,-78.98999786376953,-69.87000274658203,-95.23999786376953,38.7599983215332,-74.55000305175781,-64.83999633789062,-42.310001373291016,-41.47999954223633,-47.959999084472656,-9.711999893188477,0,0,0,0,0,0,0,0,0,0,0,0,0,5.897499,0,2025-05-31 12:16:34.220418,
61,-73.26000213623047,-47.5099983215332,-88.72000122070312,-36.16999816894531,-60.7599983215332,-77.31999969482422,-61.47999954223633,-56.970001220703125,-76.37000274658203,17.8799991607666,-41.27000045776367,-42.88999938964844,-24.010000228881836,-33.59000015258789,-32.38999938964844,3.2060000896453857,0,0,0,0,0,0,0,0,0,0,0,0,0,5.897499,0,2025-05-31 12:16:34.220418,
62,-54.529998779296875,-38.20000076293945,-69.19000244140625,-28.020000457763672,-44.2400016784668,-72.52999877929688,-58.119998931884766,-58.13999938964844,-86.7699966430664,-37.970001220703125,-35.5099983215332,-40.15999984741211,-32.7400016784668,-52.34000015258789,-6.881999969482422,5.7210001945495605,0,0,0,0,0,0,0,0,0,0,0,0,0,5.943756,0,2025-05-31 12:16:34.266675,
63,-59.79999923706055,-43.060001373291016,-74.01000213623047,-39.810001373291016,-49.599998474121094,-75.5199966430664,-61.47999954223633,-66.16000366210938,-80.05999755859375,-12.029999732971191,-73.33000183105469,-59.560001373291016,-40.13999938964844,-47.56999969482422,-15.4399995803833,-10.449999809265137,0,0,0,0,0,0,0,0,0,0,0,0,0,5.943756,0,2025-05-31 12:16:34.266675,
64,-66.55000305175781,-38.81999969482422,-79.02999877929688,-45.27000045776367,-53.72999954223633,-73.16000366210938,-57.630001068115234,-68.30000305175781,-68.25,18.770000457763672,-97.66000366210938,-77.56999969482422,-33.599998474121094,-23.81999969482422,-44.43000030517578,-7.932000160217285,0,0,0,0,0,0,0,0,0,0,0,0,0,5.943756,0,2025-05-31 12:16:34.266675,
65,-65.0,-34.58000183105469,-90.5199966430664,-39.7599983215332,-65.54000091552734,-67.66999816894531,-52.810001373291016,-61.369998931884766,-126.30000305175781,28.65999984741211,-105.69999694824219,-95.62000274658203,-36.47999954223633,-24.809999465942383,-63.08000183105469,16.920000076293945,0,0,0,0,0,0,0,0,0,0,0,0,0,5.943756,0,2025-05-31 12:16:34.266675,
66,-73.75,-34.54999923706055,-100.30000305175781,-43.86000061035156,-86.87000274658203,-64.30999755859375,-49.650001525878906,-56.400001525878906,-158.5,67.4800033569336,-99.38999938964844,-89.0,-27.389999389648438,-26.15999984741211,-59.7599983215332,34.40999984741211,0,0,0,0,0,0,0,0,0,0,0,0,0,5.943756,0,2025-05-31 12:16:34.266675,
67,-62.189998626708984,-10.699999809265137,-94.1500015258789,-50.02000045776367,-74.3499984741211,-64.44000244140625,-48.58000183105469,-64.26000213623047,-92.6500015258789,60.22999954223633,-65.30000305175781,-53.47999954223633,1.843999981880188,-8.48900032043457,-33.68000030517578,43.68000030517578,0,0,0,0,0,0,0,0,0,0,0,0,0,5.99046,0,2025-05-31 12:16:34.313379,
68,-36.52000045776367,11.100000381469727,-98.8499984741211,-46.86000061035156,-50.970001220703125,-71.41999816894531,-54.790000915527344,-77.3499984741211,-53.84000015258789,-18.040000915527344,-43.810001373291016,-40.630001068115234,7.419000148773193,-7.140999794006348,-7.583000183105469,57.52000045776367,0,0,0,0,0,0,0,0,0,0,0,0,0,5.99046,0,2025-05-31 12:16:34.313379,
69,-42.06999969482422,-2.812000036239624,-109.0,-43.459999084472656,-57.029998779296875,-72.98999786376953,-56.0099983215332,-79.29000091552734,-72.61000061035156,-47.560001373291016,-45.45000076293945,-45.84000015258789,-2.996000051498413,-14.729999542236328,-4.072999954223633,65.9800033569336,0,0,0,0,0,0,0,0,0,0,0,0,0,5.99046,0,2025-05-31 12:16:34.313379,
70,-43.599998474121094,-6.875,-91.38999938964844,-34.0,-55.15999984741211,-55.369998931884766,-37.5099983215332,-66.08999633789062,-69.37999725341797,-3.428999900817871,-36.959999084472656,-27.969999313354492,7.859000205993652,-1.246999979019165,-7.130000114440918,61.529998779296875,0,0,0,0,0,0,0,0,0,0,0,0,0,5.99046,0,2025-05-31 12:16:34.313379,
71,-12.800000190734863,17.59000015258789,-57.68000030517578,-14.210000038146973,-30.670000076293945,-36.68000030517578,-17.649999618530273,-51.650001525878906,-49.279998779296875,26.270000457763672,-23.639999389648438,-3.1679999828338623,26.040000915527344,13.479999542236328,4.261000156402588,62.79999923706055,0,0,0,0,0,0,0,0,0,0,0,0,0,5.99046,0,2025-05-31 12:16:34.313379,
72,0.48989999294281006,23.399999618530273,-41.4900016784668,-10.640000343322754,-21.809999465942383,-42.029998779296875,-25.600000381469727,-56.5,-39.79999923706055,24.260000228881836,-22.31999969482422,-2.3239998817443848,24.790000915527344,3.437999963760376,17.15999984741211,74.30000305175781,0,0,0,0,0,0,0,0,0,0,0,0,0,6.03898,0,2025-05-31 12:16:34.361899,
73,-20.100000381469727,2.493000030517578,-58.459999084472656,-26.100000381469727,-33.529998779296875,-61.060001373291016,-47.4900016784668,-79.66999816894531,-45.619998931884766,27.190000534057617,-32.599998474121094,-17.8799991607666,6.23799991607666,-18.780000686645508,11.90999984741211,66.9000015258789,0,0,0,0,0,0,0,0,0,0,0,0,0,6.03898,0,2025-05-31 12:16:34.361899,
74,-32.59000015258789,-8.543000221252441,-73.44000244140625,-24.469999313354492,-36.34000015258789,-57.20000076293945,-41.66999816894531,-86.70999908447266,-49.31999969482422,37.40999984741211,-33.459999084472656,-19.469999313354492,-3.7929999828338623,-23.65999984741211,-1.0479999780654907,40.939998626708984,0,0,0,0,0,0,0,0,0,0,0,0,0,6.03898,0,2025-05-31 12:16:34.361899,
75,-20.1200008392334,-0.5756000280380249,-55.04999923706055,-15.130000114440918,-24.940000534057617,-36.970001220703125,-22.43000030517578,-74.27999877929688,-37.06999969482422,23.440000534057617,-20.950000762939453,-16.040000915527344,-2.9089999198913574,-19.3799991607666,-8.057999610900879,28.200000762939453,0,0,0,0,0,0,0,0,0,0,0,0,0,6.03898,0,2025-05-31 12:16:34.361899,
76,-18.3700008392334,-3.7130000591278076,-54.380001068115234,-30.1200008392334,-28.34000015258789,-41.06999969482422,-29.739999771118164,-80.13999938964844,-49.970001220703125,-15.149999618530273,-31.190000534057617,-36.58000183105469,-12.9399995803833,-29.6200008392334,-21.100000381469727,22.100000381469727,0,0,0,0,0,0,0,0,0,0,0,0,0,6.03898,0,2025-05-31 12:16:34.361899,
77,-32.060001373291016,-11.0600004196167,-70.31999969482422,-27.079999923706055,-38.290000915527344,-40.59000015258789,-27.43000030517578,-79.8499984741211,-66.33000183105469,5.159999847412109,-39.279998779296875,-38.33000183105469,-10.079999923706055,-30.260000228881836,-33.7400016784668,8.255000114440918,0,0,0,0,0,0,0,0,0,0,0,0,0,6.091526,0,2025-05-31 12:16:34.414445,
78,-14.149999618530273,15.15999984741211,-40.04999923706055,14.760000228881836,-21.280000686645508,-9.96399974822998,3.3489999771118164,-44.16999816894531,-38.33000183105469,66.30000305175781,-13.319999694824219,-3.4649999141693115,15.479999542236328,-14.390000343322754,-20.280000686645508,6.7129998207092285,0,0,0,0,0,0,0,0,0,0,0,0,0,6.091526,0,2025-05-31 12:16:34.414445,
79,12.390000343322754,31.799999237060547,-16.540000915527344,28.709999084472656,-7.400000095367432,-8.76099967956543,1.4390000104904175,-35.689998626708984,-28.15999984741211,24.559999465942383,-6.478000164031982,5.986999988555908,22.059999465942383,-8.043999671936035,5.60699987411499,21.489999771118164,0,0,0,0,0,0,0,0,0,0,0,0,0,6.091526,0,2025-05-31 12:16:34.414445,
80,3.499000072479248,5.173999786376953,-29.75,15.40999984741211,-10.520000457763672,-27.700000762939453,-17.149999618530273,-63.310001373291016,-36.63999938964844,-29.34000015258789,-8.881999969482422,2.359999895095825,22.030000686645508,1.6510000228881836,20.1200008392334,36.5,0,0,0,0,0,0,0,0,0,0,0,0,0,6.091526,0,2025-05-31 12:16:34.414445,
81,3.9839999675750732,2.9830000400543213,-10.869999885559082,22.25,5.0920000076293945,-10.350000381469727,-0.16269999742507935,-66.33999633789062,-12.640000343322754,37.470001220703125,15.329999923706055,16.68000030517578,35.290000915527344,9.946000099182129,28.729999542236328,48.18000030517578,0,0,0,0,0,0,0,0,0,0,0,0,0,6.091526,0,2025-05-31 12:16:34.414445,
82,18.959999084472656,26.440000534057617,3.578000068664551,20.31999969482422,11.079999923706055,3.371999979019165,8.814000129699707,-63.33000183105469,-17.450000762939453,46.58000183105469,10.180000305175781,7.045000076293945,30.8799991607666,-2.760999917984009,31.149999618530273,51.9900016784668,0,0,0,0,0,0,0,0,0,0,0,0,0,6.139904,0,2025-05-31 12:16:34.462823,
83,6.421999931335449,20.290000915527344,-19.360000610351562,11.050000190734863,-5.880000114440918,-0.35010001063346863,2.822999954223633,-70.2699966430664,-45.83000183105469,-16.959999084472656,-15.670000076293945,-13.359999656677246,16.719999313354492,-7.478000164031982,19.239999771118164,42.630001068115234,0,0,0,0,0,0,0,0,0,0,0,0,0,6.139904,0,2025-05-31 12:16:34.462823,
84,-3.569999933242798,11.710000038146973,-12.029999732971191,27.700000762939453,3.569000005722046,12.420000076293945,17.15999984741211,-63.22999954223633,-31.989999771118164,34.959999084472656,-13.5,-14.9399995803833,12.670000076293945,-4.442999839782715,-4.073999881744385,24.170000076293945,0,0,0,0,0,0,0,0,0,0,0,0,0,6.139904,0,2025-05-31 12:16:34.462823,
85,-3.0899999141693115,15.0,0.9423999786376953,26.360000610351562,13.949999809265137,7.370999813079834,10.720000267028809,-74.13999938964844,-28.1200008392334,66.0999984741211,-21.790000915527344,-27.8799991607666,9.371000289916992,-12.529999732971191,-29.190000534057617,5.541999816894531,0,0,0,0,0,0,0,0,0,0,0,0,0,6.139904,0,2025-05-31 12:16:34.462823,
86,-22.270000457763672,7.953999996185303,-23.540000915527344,-3.375999927520752,-8.845000267028809,-18.709999084472656,-17.450000762939453,-99.61000061035156,-40.40999984741211,-12.170000076293945,-36.61000061035156,-37.75,16.010000228881836,-4.710999965667725,-37.150001525878906,0.5730999708175659,0,0,0,0,0,0,0,0,0,0,0,0,0,6.139904,0,2025-05-31 12:16:34.462823,
87,-27.600000381469727,9.571999549865723,-34.54999923706055,-6.447000026702881,-17.75,-17.170000076293945,-13.34000015258789,-86.97000122070312,-14.619999885559082,-0.9293000102043152,-19.479999542236328,-19.530000686645508,29.030000686645508,16.719999313354492,-21.510000228881836,12.229999542236328,0,0,0,0,0,0,0,0,0,0,0,0,0,6.178573,0,2025-05-31 12:16:34.501492,
88,-2.00600004196167,23.309999465942383,-20.09000015258789,16.040000915527344,-1.5360000133514404,-1.5190000534057617,3.359999895095825,-57.36000061035156,1.6239999532699585,69.3499984741211,-8.880999565124512,-5.671000003814697,28.170000076293945,22.6200008392334,-2.3469998836517334,23.809999465942383,0,0,0,0,0,0,0,0,0,0,0,0,0,6.178573,0,2025-05-31 12:16:34.501492,
89,7.598999977111816,25.030000686645508,-12.6899995803833,23.729999542236328,-0.8691999912261963,-7.478000164031982,-5.978000164031982,-52.709999084472656,-30.8700008392334,56.86000061035156,-27.59000015258789,-12.380000114440918,16.100000381469727,17.520000457763672,6.267000198364258,22.670000076293945,0,0,0,0,0,0,0,0,0,0,0,0,0,6.178573,0,2025-05-31 12:16:34.501492,
90,-17.989999771118164,3.506999969482422,-30.920000076293945,-7.203999996185303,-29.920000076293945,-39.9900016784668,-40.630001068115234,-77.79000091552734,-84.0,16.0,-48.81999969482422,-29.459999084472656,-0.6424000263214111,8.265000343322754,3.7899999618530273,14.420000076293945,0,0,0,0,0,0,0,0,0,0,0,0,0,6.178573,0,2025-05-31 12:16:34.501492,
91,-47.09000015258789,-30.170000076293945,-65.08999633789062,-50.709999084472656,-63.529998779296875,-73.37999725341797,-73.1500015258789,-112.9000015258789,-118.0,-3.5369999408721924,-61.849998474121094,-41.560001373291016,-4.181000232696533,1.4010000228881836,-7.666999816894531,11.300000190734863,0,0,0,0,0,0,0,0,0,0,0,0,0,6.178573,0,2025-05-31 12:16:34.501492,
92,-48.56999969482422,-33.290000915527344,-71.02999877929688,-50.79999923706055,-67.58000183105469,-72.56999969482422,-69.9800033569336,-115.5999984741211,-93.66000366210938,3.2750000953674316,-56.52000045776367,-27.059999465942383,24.190000534057617,13.859999656677246,-10.789999961853027,21.329999923706055,0,0,0,0,0,0,0,0,0,0,0,0,0,6.22424,0,2025-05-31 12:16:34.547159,
93,-33.189998626708984,-6.640999794006348,-67.54000091552734,-36.470001220703125,-57.650001525878906,-64.37999725341797,-61.2599983215332,-105.19999694824219,-52.09000015258789,15.079999923706055,-30.829999923706055,-1.0429999828338623,52.65999984741211,34.310001373291016,10.449999809265137,44.18000030517578,0,0,0,0,0,0,0,0,0,0,0,0,0,6.22424,0,2025-05-31 12:16:34.547159,
94,-28.030000686645508,-8.513999938964844,-94.48999786376953,-54.689998626708984,-62.459999084472656,-80.47000122070312,-78.38999938964844,-123.4000015258789,-52.27000045776367,-2.1480000019073486,-22.829999923706055,-1.194000005722046,42.08000183105469,31.600000381469727,31.860000610351562,59.119998931884766,0,0,0,0,0,0,0,0,0,0,0,0,0,6.22424,0,2025-05-31 12:16:34.547159,
95,-30.299999237060547,-29.6299991607666,-93.36000061035156,-58.04999923706055,-62.0,-77.06999969482422,-73.83000183105469,-120.19999694824219,-64.55999755859375,13.329999923706055,-48.36000061035156,-19.940000534057617,20.75,17.799999237060547,22.729999542236328,47.41999816894531,0,0,0,0,0,0,0,0,0,0,0,0,0,6.22424,0,2025-05-31 12:16:34.547159,
96,-27.350000381469727,-11.710000038146973,-51.9900016784668,-35.810001373291016,-56.459999084472656,-40.36000061035156,-36.880001068115234,-82.47000122070312,-73.44000244140625,55.66999816894531,-57.11000061035156,-18.510000228881836,34.91999816894531,29.530000686645508,9.840999603271484,40.47999954223633,0,0,0,0,0,0,0,0,0,0,0,0,0,6.22424,0,2025-05-31 12:16:34.547159,
97,-20.280000686645508,30.8700008392334,-49.31999969482422,-32.83000183105469,-72.58000183105469,-18.719999313354492,-17.389999389648438,-71.04000091552734,-89.93000030517578,51.79999923706055,-35.36000061035156,-4.802000045776367,52.880001068115234,40.7599983215332,23.450000762939453,61.81999969482422,0,0,0,0,0,0,0,0,0,0,0,0,0,6.271627,0,2025-05-31 12:16:34.594546,
98,-27.139999389648438,37.83000183105469,-75.0,-35.16999816894531,-97.30000305175781,-27.899999618530273,-27.270000457763672,-70.31999969482422,-105.5,41.15999984741211,-45.959999084472656,-26.959999084472656,21.780000686645508,11.720000267028809,22.8700008392334,57.56999969482422,0,0,0,0,0,0,0,0,0,0,0,0,0,6.271627,0,2025-05-31 12:16:34.594546,
99,-63.61000061035156,2.0820000171661377,-75.05999755859375,-34.650001525878906,-109.0999984741211,-52.220001220703125,-49.97999954223633,-53.900001525878906,-118.80000305175781,19.989999771118164,-82.48999786376953,-68.30999755859375,-18.969999313354492,-16.829999923706055,-17.3799991607666,2.759000062942505,0,0,0,0,0,0,0,0,0,0,0,0,0,6.271627,0,2025-05-31 12:16:34.594546,
100,-87.18000030517578,-21.040000915527344,-65.97000122070312,-40.45000076293945,-97.55000305175781,-63.54999923706055,-58.119998931884766,-38.959999084472656,-91.58000183105469,-14.319999694824219,-64.93000030517578,-60.25,-10.6899995803833,-3.734999895095825,-41.52000045776367,-34.0,0,0,0,0,0,0,0,0,0,0,0,0,0,6.271627,0,2025-05-31 12:16:34.594546,
101,-56.22999954223633,-3.61899995803833,-60.09000015258789,-29.469999313354492,-68.8499984741211,-43.97999954223633,-39.0,-7.182000160217285,-39.2599983215332,17.450000762939453,-18.920000076293945,-23.770000457763672,13.75,18.84000015258789,-19.940000534057617,-18.700000762939453,0,0,0,0,0,0,0,0,0,0,0,0,0,6.271627,0,2025-05-31 12:16:34.594546,
102,-32.65999984741211,3.5220000743865967,-59.04999923706055,-28.229999542236328,-70.26000213623047,-39.40999984741211,-38.65999984741211,22.6299991607666,-68.4000015258789,28.739999771118164,-32.310001373291016,-32.439998626708984,5.1539998054504395,18.059999465942383,0.89410001039505,2.444000005722046,0,0,0,0,0,0,0,0,0,0,0,0,0,6.320714,0,2025-05-31 12:16:34.643633,
103,-58.459999084472656,-23.760000228881836,-81.76000213623047,-59.630001068115234,-102.5999984741211,-66.55999755859375,-66.38999938964844,13.819999694824219,-128.8000030517578,-21.65999984741211,-66.5,-54.65999984741211,-8.074000358581543,11.880000114440918,-4.132999897003174,6.109000205993652,0,0,0,0,0,0,0,0,0,0,0,0,0,6.320714,0,2025-05-31 12:16:34.643633,
104,-65.5999984741211,-28.860000610351562,-101.5999984741211,-66.5,-106.0999984741211,-69.51000213623047,-70.87999725341797,12.279999732971191,-107.0999984741211,12.819999694824219,-46.79999923706055,-38.68000030517578,3.053999900817871,17.3799991607666,-7.769999980926514,11.260000228881836,0,0,0,0,0,0,0,0,0,0,0,0,0,6.320714,0,2025-05-31 12:16:34.643633,
105,-55.40999984741211,-18.510000228881836,-103.4000015258789,-58.279998779296875,-101.0999984741211,-69.77999877929688,-74.80999755859375,20.739999771118164,-83.38999938964844,52.810001373291016,-28.329999923706055,-37.56999969482422,-2.2699999809265137,13.329999923706055,-1.0390000343322754,16.440000534057617,0,0,0,0,0,0,0,0,0,0,0,0,0,6.320714,0,2025-05-31 12:16:34.643633,
106,-87.69000244140625,-54.310001373291016,-114.0999984741211,-77.44000244140625,-120.9000015258789,-102.19999694824219,-103.69999694824219,8.85200023651123,-94.95999908447266,-6.007999897003174,-46.470001220703125,-58.45000076293945,-28.6200008392334,1.8079999685287476,0.804099977016449,8.503000259399414,0,0,0,0,0,0,0,0,0,0,0,0,0,6.320714,0,2025-05-31 12:16:34.643633,
107,-96.2300033569336,-81.1500015258789,-100.0999984741211,-68.41000366210938,-105.30000305175781,-96.63999938964844,-94.6500015258789,31.739999771118164,-60.849998474121094,-10.050000190734863,-30.399999618530273,-39.2599983215332,-26.6299991607666,6.257999897003174,2.0999999046325684,-0.9071000218391418,0,0,0,0,0,0,0,0,0,0,0,0,0,6.554591,0,2025-05-31 12:16:34.877510,
108,-51.70000076293945,-48.849998474121094,-64.4800033569336,-38.93000030517578,-68.69000244140625,-61.41999816894531,-63.33000183105469,78.02999877929688,-37.88999938964844,34.04999923706055,-0.4429999887943268,-21.010000228881836,-16.260000228881836,5.926000118255615,6.1579999923706055,-1.597000002861023,0,0,0,0,0,0,0,0,0,0,0,0,0,6.554591,0,2025-05-31 12:16:34.877510,
109,-46.779998779296875,-30.829999923706055,-78.62999725341797,-55.0,-76.23999786376953,-64.23999786376953,-67.06999969482422,80.44000244140625,-62.880001068115234,29.84000015258789,-9.335000038146973,-27.299999237060547,-11.869999885559082,8.654000282287598,10.4399995803833,8.461999893188477,0,0,0,0,0,0,0,0,0,0,0,0,0,6.554591,0,2025-05-31 12:16:34.877510,
110,-44.15999984741211,-20.559999465942383,-84.86000061035156,-52.08000183105469,-62.209999084472656,-42.72999954223633,-41.880001068115234,91.75,-33.130001068115234,57.400001525878906,17.81999969482422,17.709999084472656,36.61000061035156,50.84000015258789,40.22999954223633,46.31999969482422,0,0,0,0,0,0,0,0,0,0,0,0,0,6.554591,0,2025-05-31 12:16:34.877510,
111,17.6299991607666,35.22999954223633,-33.61000061035156,-1.371000051498413,-12.119999885559082,17.81999969482422,18.790000915527344,132.60000610351562,24.719999313354492,72.20999908447266,82.94999694824219,76.38999938964844,92.4800033569336,87.12999725341797,96.27999877929688,102.19999694824219,0,0,0,0,0,0,0,0,0,0,0,0,0,6.554591,0,2025-05-31 12:16:34.877510,
112,40.16999816894531,64.4800033569336,-21.280000686645508,5.914999961853027,-19.0,24.0,22.81999969482422,130.3000030517578,28.5,14.4399995803833,93.98999786376953,72.66999816894531,90.3499984741211,83.58000183105469,127.69999694824219,132.1999969482422,0,0,0,0,0,0,0,0,0,0,0,0,0,6.600025,0,2025-05-31 12:16:34.922944,
113,15.5,40.970001220703125,-39.83000183105469,-18.780000686645508,-41.13999938964844,-1.6670000553131104,-2.5220000743865967,109.30000305175781,22.93000030517578,8.458999633789062,84.44000244140625,59.150001525878906,66.7699966430664,75.66000366210938,119.0999984741211,129.60000610351562,0,0,0,0,0,0,0,0,0,0,0,0,0,6.600025,0,2025-05-31 12:16:34.922944,
114,19.260000228881836,19.440000534057617,-29.84000015258789,-21.440000534057617,-27.110000610351562,-10.5,-11.569999694824219,113.0999984741211,2.9560000896453857,11.859999656677246,76.73999786376953,44.029998779296875,37.40999984741211,52.13999938964844,90.69000244140625,107.0,0,0,0,0,0,0,0,0,0,0,0,0,0,6.600025,0,2025-05-31 12:16:34.922944,
115,-2.4089999198913574,-20.420000076293945,-50.5099983215332,-37.369998931884766,-50.11000061035156,-40.22999954223633,-43.150001525878906,98.80000305175781,-55.08000183105469,-55.7400016784668,4.482999801635742,-17.530000686645508,-13.789999961853027,1.2979999780654907,36.61000061035156,55.20000076293945,0,0,0,0,0,0,0,0,0,0,0,0,0,6.600025,0,2025-05-31 12:16:34.922944,
116,-57.209999084472656,-64.1500015258789,-85.52999877929688,-63.5,-93.0,-67.5999984741211,-69.80999755859375,73.97000122070312,-70.44999694824219,-37.849998474121094,-71.33999633789062,-63.13999938964844,-32.41999816894531,-21.700000762939453,-27.020000457763672,4.2230000495910645,0,0,0,0,0,0,0,0,0,0,0,0,0,6.600025,0,2025-05-31 12:16:34.922944,
117,-63.95000076293945,-47.0,-70.69000244140625,-62.2400016784668,-88.31999969482422,-53.529998779296875,-54.970001220703125,88.55000305175781,-49.720001220703125,58.189998626708984,-66.9800033569336,-47.470001220703125,-0.18410000205039978,-0.6015999913215637,-48.66999816894531,10.770000457763672,0,0,0,0,0,0,0,0,0,0,0,0,0,6.647477,0,2025-05-31 12:16:34.970396,
118,-46.38999938964844,-16.219999313354492,-50.75,-49.58000183105469,-68.43000030517578,-41.310001373291016,-43.90999984741211,115.5999984741211,-57.810001373291016,33.290000915527344,-51.0099983215332,-30.459999084472656,12.09000015258789,16.040000915527344,-26.690000534057617,55.02000045776367,0,0,0,0,0,0,0,0,0,0,0,0,0,6.647477,0,2025-05-31 12:16:34.970396,
119,-46.22999954223633,-35.86000061035156,-46.33000183105469,-38.59000015258789,-55.5099983215332,-48.90999984741211,-52.310001373291016,112.80000305175781,-54.25,-60.040000915527344,-59.540000915527344,-39.06999969482422,-15.479999542236328,5.955999851226807,-2.871999979019165,74.58000183105469,0,0,0,0,0,0,0,0,0,0,0,0,0,6.647477,0,2025-05-31 12:16:34.970396,
120,-45.5099983215332,-71.5199966430664,-44.63999938964844,-32.0099983215332,-48.38999938964844,-57.20000076293945,-63.22999954223633,97.12999725341797,-41.970001220703125,-59.189998626708984,-53.040000915527344,-51.52000045776367,-37.150001525878906,-10.699999809265137,1.7430000305175781,57.959999084472656,0,0,0,0,0,0,0,0,0,0,0,0,0,6.647477,0,2025-05-31 12:16:34.970396,
121,-52.9900016784668,-82.80000305175781,-61.93000030517578,-38.72999954223633,-58.959999084472656,-63.060001373291016,-71.08999633789062,93.58000183105469,-62.41999816894531,-13.65999984741211,-53.279998779296875,-65.33000183105469,-42.470001220703125,-19.959999084472656,-18.100000381469727,21.479999542236328,0,0,0,0,0,0,0,0,0,0,0,0,0,6.647477,0,2025-05-31 12:16:34.970396,
122,-60.5099983215332,-67.2300033569336,-65.16999816894531,-45.470001220703125,-57.119998931884766,-48.869998931884766,-56.290000915527344,99.2300033569336,-61.54999923706055,-16.06999969482422,-65.48999786376953,-67.54000091552734,-39.209999084472656,-19.229999542236328,-48.54999923706055,-13.800000190734863,0,0,0,0,0,0,0,0,0,0,0,0,0,6.695907,0,2025-05-31 12:16:35.018826,
123,-38.599998474121094,-36.040000915527344,-39.15999984741211,-44.290000915527344,-37.650001525878906,-20.559999465942383,-30.030000686645508,111.4000015258789,-28.399999618530273,-9.25,-51.2400016784668,-48.540000915527344,-21.969999313354492,-11.1899995803833,-53.5,-17.190000534057617,0,0,0,0,0,0,0,0,0,0,0,0,0,6.695907,0,2025-05-31 12:16:35.018826,
124,-19.93000030517578,-18.530000686645508,-32.619998931884766,-40.939998626708984,-33.369998931884766,-20.709999084472656,-32.52000045776367,125.30000305175781,-13.899999618530273,31.219999313354492,-32.470001220703125,-42.72999954223633,-17.690000534057617,-17.290000915527344,-35.060001373291016,-4.22599983215332,0,0,0,0,0,0,0,0,0,0,0,0,0,6.695907,0,2025-05-31 12:16:35.018826,
125,-32.5,-36.22999954223633,-43.5,-37.0099983215332,-27.5,-43.16999816894531,-55.59000015258789,122.0999984741211,-7.96999979019165,-2.1470000743865967,-28.579999923706055,-55.04999923706055,-43.41999816894531,-38.5,-25.920000076293945,-14.149999618530273,0,0,0,0,0,0,0,0,0,0,0,0,0,6.695907,0,2025-05-31 12:16:35.018826,
126,-38.459999084472656,-64.2300033569336,-36.65999984741211,-35.779998779296875,-8.819000244140625,-48.66999816894531,-62.459999084472656,112.69999694824219,-0.8163999915122986,-81.73999786376953,-15.739999771118164,-44.86000061035156,-55.91999816894531,-45.33000183105469,-20.8700008392334,-24.229999542236328,0,0,0,0,0,0,0,0,0,0,0,0,0,6.695907,0,2025-05-31 12:16:35.018826,
127,-22.610000610351562,-66.41000366210938,-25.1200008392334,-30.049999237060547,-7.146999835968018,-36.27000045776367,-50.0099983215332,121.5999984741211,-1.062000036239624,-64.30000305175781,-10.640000343322754,-23.18000030517578,-40.34000015258789,-40.029998779296875,-7.6620001792907715,-9.456000328063965,0,0,0,0,0,0,0,0,0,0,0,0,0,6.747579,0,2025-05-31 12:16:35.070498,
128,-18.209999084472656,-53.65999984741211,-34.15999984741211,-20.34000015258789,-22.170000076293945,-23.829999923706055,-37.310001373291016,128.0,-0.9656000137329102,-9.725000381469727,-23.209999084472656,-22.40999984741211,-27.639999389648438,-34.72999954223633,1.1139999628067017,2.7130000591278076,0,0,0,0,0,0,0,0,0,0,0,0,0,6.747579,0,2025-05-31 12:16:35.070498,
129,-26.90999984741211,-48.540000915527344,-45.91999816894531,-22.700000762939453,-28.8799991607666,-16.049999237060547,-29.31999969482422,119.19999694824219,-3.7699999809265137,-12.0600004196167,-10.609999656677246,-20.049999237060547,-17.610000610351562,-23.25,10.470000267028809,5.783999919891357,0,0,0,0,0,0,0,0,0,0,0,0,0,6.747579,0,2025-05-31 12:16:35.070498,
130,-21.979999542236328,-45.13999938964844,-31.100000381469727,-30.780000686645508,-19.3799991607666,-18.290000915527344,-30.780000686645508,115.5999984741211,4.385000228881836,-2.3570001125335693,20.200000762939453,-6.401000022888184,-8.916000366210938,-19.610000610351562,24.75,13.880000114440918,0,0,0,0,0,0,0,0,0,0,0,0,0,6.747579,0,2025-05-31 12:16:35.070498,
131,-12.880000114440918,-47.279998779296875,-14.770000457763672,-37.130001068115234,-6.751999855041504,-35.91999816894531,-51.599998474121094,107.80000305175781,21.309999465942383,4.058000087738037,19.43000030517578,-7.0929999351501465,-15.109999656677246,-21.520000457763672,23.829999923706055,23.18000030517578,0,0,0,0,0,0,0,0,0,0,0,0,0,6.747579,0,2025-05-31 12:16:35.070498,
132,-21.139999389648438,-57.11000061035156,-30.219999313354492,-46.189998626708984,-11.079999923706055,-49.970001220703125,-68.55999755859375,94.02999877929688,13.920000076293945,-34.13999938964844,3.190000057220459,-13.180000305175781,-16.110000610351562,-7.189000129699707,10.960000038146973,36.810001373291016,0,0,0,0,0,0,0,0,0,0,0,0,0,6.786679,0,2025-05-31 12:16:35.109598,
133,-30.950000762939453,-49.5099983215332,-48.970001220703125,-48.7400016784668,-24.260000228881836,-40.79999923706055,-57.810001373291016,99.26000213623047,13.319999694824219,-14.920000076293945,4.609000205993652,-6.9039998054504395,-1.6670000553131104,-0.2248000055551529,4.814000129699707,42.84000015258789,0,0,0,0,0,0,0,0,0,0,0,0,0,6.786679,0,2025-05-31 12:16:35.109598,
134,-19.809999465942383,-26.010000228881836,-39.9900016784668,-47.31999969482422,-17.889999389648438,-26.530000686645508,-42.79999923706055,107.69999694824219,32.869998931884766,39.4900016784668,-0.5856000185012817,-1.0140000581741333,4.318999767303467,-14.130000114440918,0.2402999997138977,19.56999969482422,0,0,0,0,0,0,0,0,0,0,0,0,0,6.786679,0,2025-05-31 12:16:35.109598,
135,-2.180000066757202,-15.34000015258789,-23.200000762939453,-51.650001525878906,-3.194000005722046,-24.899999618530273,-41.529998779296875,101.30000305175781,11.260000228881836,7.051000118255615,-18.639999389648438,-2.684999942779541,-1.0010000467300415,-19.440000534057617,-7.145999908447266,-5.781000137329102,0,0,0,0,0,0,0,0,0,0,0,0,0,6.786679,0,2025-05-31 12:16:35.109598,
136,-6.734000205993652,-20.420000076293945,-28.649999618530273,-52.5099983215332,-14.329999923706055,-26.979999542236328,-43.630001068115234,98.01000213623047,-26.25,-29.90999984741211,-19.3799991607666,-7.196000099182129,-5.49399995803833,-14.210000038146973,-10.100000381469727,-7.585999965667725,0,0,0,0,0,0,0,0,0,0,0,0,0,6.786679,0,2025-05-31 12:16:35.109598,
137,-20.450000762939453,-22.649999618530273,-46.880001068115234,-46.119998931884766,-30.079999923706055,-25.93000030517578,-42.43000030517578,100.5,-17.440000534057617,6.563000202178955,-10.510000228881836,-8.449999809265137,-3.132999897003174,-7.493000030517578,-7.255000114440918,-4.117000102996826,0,0,0,0,0,0,0,0,0,0,0,0,0,6.833832,0,2025-05-31 12:16:35.156751,
138,-11.970000267028809,-12.800000190734863,-48.31999969482422,-40.47999954223633,-17.299999237060547,-19.34000015258789,-35.810001373291016,103.69999694824219,-5.460999965667725,9.279000282287598,-11.869999885559082,-4.228000164031982,2.3320000171661377,-1.0709999799728394,-2.684999942779541,-3.515000104904175,0,0,0,0,0,0,0,0,0,0,0,0,0,6.833832,0,2025-05-31 12:16:35.156751,
139,-3.3889999389648438,-10.869999885559082,-41.529998779296875,-43.849998474121094,-10.930000305175781,-15.319999694824219,-33.189998626708984,107.5999984741211,-15.760000228881836,-27.329999923706055,-17.040000915527344,-10.720000267028809,-11.210000038146973,-11.680000305175781,-7.873000144958496,-8.098999977111816,0,0,0,0,0,0,0,0,0,0,0,0,0,6.833832,0,2025-05-31 12:16:35.156751,
140,-20.770000457763672,-32.380001068115234,-42.68000030517578,-53.369998931884766,-29.200000762939453,-27.799999237060547,-44.779998779296875,101.0999984741211,-8.574999809265137,-15.039999961853027,-24.459999084472656,-28.5,-36.41999816894531,-28.31999969482422,-24.950000762939453,-23.940000534057617,0,0,0,0,0,0,0,0,0,0,0,0,0,6.833832,0,2025-05-31 12:16:35.156751,
141,-34.20000076293945,-50.90999984741211,-41.20000076293945,-54.2400016784668,-28.899999618530273,-41.939998626708984,-56.4900016784668,93.05000305175781,2.194999933242798,3.5209999084472656,-28.040000915527344,-29.010000228881836,-35.29999923706055,-28.149999618530273,-29.3700008392334,-28.479999542236328,0,0,0,0,0,0,0,0,0,0,0,0,0,6.833832,0,2025-05-31 12:16:35.156751,
142,-25.549999237060547,-46.060001373291016,-37.459999084472656,-45.150001525878906,-7.057000160217285,-35.849998474121094,-50.25,106.5,-5.196000099182129,2.7009999752044678,-9.522000312805176,-4.320000171661377,-5.908999919891357,-12.65999984741211,-5.019999980926514,-5.215000152587891,0,0,0,0,0,0,0,0,0,0,0,0,0,6.881223,0,2025-05-31 12:16:35.204142,
143,-7.177999973297119,-25.739999771118164,-30.209999084472656,-31.1299991607666,5.079999923706055,-17.329999923706055,-31.059999465942383,126.5999984741211,2.440000057220459,24.75,18.360000610351562,22.799999237060547,22.639999389648438,15.079999923706055,28.600000381469727,23.530000686645508,0,0,0,0,0,0,0,0,0,0,0,0,0,6.881223,0,2025-05-31 12:16:35.204142,
144,5.611000061035156,-8.17199993133545,-23.049999237060547,-18.8799991607666,1.9819999933242798,-11.229999542236328,-24.899999618530273,128.8000030517578,20.770000457763672,34.33000183105469,24.270000457763672,26.3700008392334,22.239999771118164,22.440000534057617,42.65999984741211,26.84000015258789,0,0,0,0,0,0,0,0,0,0,0,0,0,6.881223,0,2025-05-31 12:16:35.204142,
145,-5.0279998779296875,-12.960000038146973,-31.59000015258789,-17.530000686645508,-11.850000381469727,-17.790000915527344,-31.200000762939453,131.5,16.09000015258789,27.799999237060547,22.760000228881836,16.559999465942383,5.116000175476074,0.8996000289916992,38.209999084472656,4.508999824523926,0,0,0,0,0,0,0,0,0,0,0,0,0,6.881223,0,2025-05-31 12:16:35.204142,
146,-6.684000015258789,-11.350000381469727,-22.290000915527344,-7.921999931335449,-10.199999809265137,-0.5404999852180481,-11.800000190734863,151.8000030517578,20.010000228881836,47.040000915527344,47.540000915527344,32.529998779296875,20.8700008392334,13.069999694824219,45.91999816894531,0.4661000072956085,0,0,0,0,0,0,0,0,0,0,0,0,0,6.881223,0,2025-05-31 12:16:35.204142,
147,31.139999389648438,23.139999389648438,12.729999542236328,13.050000190734863,18.850000381469727,35.380001068115234,22.420000076293945,167.39999389648438,46.45000076293945,57.47999954223633,63.15999984741211,52.189998626708984,48.06999969482422,40.18000030517578,68.63999938964844,32.56999969482422,0,0,0,0,0,0,0,0,0,0,0,0,0,6.927805,0,2025-05-31 12:16:35.250724,
148,47.029998779296875,37.540000915527344,16.979999542236328,14.819999694824219,32.06999969482422,44.119998931884766,29.84000015258789,170.3000030517578,41.38999938964844,46.040000915527344,33.54999923706055,37.349998474121094,41.25,24.719999313354492,73.6500015258789,55.40999984741211,0,0,0,0,0,0,0,0,0,0,0,0,0,6.927805,0,2025-05-31 12:16:35.250724,
149,29.829999923706055,25.149999618530273,15.6899995803833,17.959999084472656,31.010000228881836,48.2599983215332,36.02000045776367,171.39999389648438,33.369998931884766,40.31999969482422,30.15999984741211,40.72999954223633,45.77000045776367,23.209999084472656,66.5199966430664,57.41999816894531,0,0,0,0,0,0,0,0,0,0,0,0,0,6.927805,0,2025-05-31 12:16:35.250724,
150,55.2599983215332,43.84000015258789,49.439998626708984,45.34000015258789,56.56999969482422,76.76000213623047,61.970001220703125,168.39999389648438,79.62999725341797,47.380001068115234,90.91999816894531,82.66000366210938,71.02999877929688,46.619998931884766,79.12000274658203,66.58999633789062,0,0,0,0,0,0,0,0,0,0,0,0,0,6.927805,0,2025-05-31 12:16:35.250724,
151,93.33999633789062,63.939998626708984,52.31999969482422,48.25,65.58000183105469,79.33999633789062,61.099998474121094,167.39999389648438,93.66000366210938,67.80000305175781,112.4000015258789,85.06999969482422,59.880001068115234,32.47999954223633,91.83000183105469,65.0,0,0,0,0,0,0,0,0,0,0,0,0,0,6.927805,0,2025-05-31 12:16:35.250724,
152,66.26000213623047,42.77000045776367,16.350000381469727,19.360000610351562,24.760000228881836,46.709999084472656,28.899999618530273,176.0,36.540000915527344,56.90999984741211,56.119998931884766,43.279998779296875,37.86000061035156,18.110000610351562,70.48999786376953,37.20000076293945,0,0,0,0,0,0,0,0,0,0,0,0,0,6.974369,0,2025-05-31 12:16:35.297288,
153,22.149999618530273,24.780000686645508,22.43000030517578,23.56999969482422,9.76200008392334,36.529998779296875,19.579999923706055,188.10000610351562,18.920000076293945,14.630000114440918,26.469999313354492,31.1299991607666,46.0099983215332,34.310001373291016,37.060001373291016,14.619999885559082,0,0,0,0,0,0,0,0,0,0,0,0,0,6.974369,0,2025-05-31 12:16:35.297288,
154,23.889999389648438,26.280000686645508,62.15999984741211,60.16999816894531,45.11000061035156,47.75,30.8799991607666,196.0,41.83000183105469,15.15999984741211,49.099998474121094,50.31999969482422,55.84000015258789,39.77000045776367,28.020000457763672,15.390000343322754,0,0,0,0,0,0,0,0,0,0,0,0,0,6.974369,0,2025-05-31 12:16:35.297288,
155,39.47999954223633,21.200000762939453,78.70999908447266,67.2699966430664,61.79999923706055,41.9900016784668,22.81999969482422,185.39999389648438,38.959999084472656,42.349998474121094,54.84000015258789,62.119998931884766,60.2400016784668,45.310001373291016,40.630001068115234,36.849998474121094,0,0,0,0,0,0,0,0,0,0,0,0,0,6.974369,0,2025-05-31 12:16:35.297288,
156,38.709999084472656,19.56999969482422,73.55000305175781,44.27000045776367,49.56999969482422,25.440000534057617,3.928999900817871,160.89999389648438,42.040000915527344,48.810001373291016,47.939998626708984,64.01000213623047,64.0999984741211,56.61000061035156,55.209999084472656,67.06999969482422,0,0,0,0,0,0,0,0,0,0,0,0,0,6.974369,0,2025-05-31 12:16:35.297288,
157,27.729999542236328,17.520000457763672,49.099998474121094,25.690000534057617,34.279998779296875,12.170000076293945,-9.279000282287598,146.60000610351562,42.099998474121094,38.630001068115234,46.2400016784668,53.02000045776367,43.459999084472656,38.58000183105469,57.970001220703125,70.62000274658203,0,0,0,0,0,0,0,0,0,0,0,0,0,7.02094,0,2025-05-31 12:16:35.343859,
158,9.081999778747559,-0.8773999810218811,14.4399995803833,14.819999694824219,15.670000076293945,7.882999897003174,-13.600000381469727,146.89999389648438,19.579999923706055,27.1200008392334,27.469999313354492,35.619998931884766,18.309999465942383,15.0,47.18000030517578,38.790000915527344,0,0,0,0,0,0,0,0,0,0,0,0,0,7.02094,0,2025-05-31 12:16:35.343859,
159,2.7880001068115234,1.2300000190734863,21.950000762939453,20.549999237060547,20.079999923706055,28.229999542236328,7.543000221252441,156.89999389648438,20.540000915527344,51.41999816894531,15.760000228881836,36.7400016784668,24.239999771118164,16.549999237060547,40.7599983215332,12.470000267028809,0,0,0,0,0,0,0,0,0,0,0,0,0,7.02094,0,2025-05-31 12:16:35.343859,
160,13.510000228881836,26.940000534057617,59.15999984741211,40.11000061035156,41.36000061035156,47.900001525878906,27.229999542236328,159.39999389648438,14.369999885559082,66.31999969482422,11.6899995803833,30.84000015258789,26.8799991607666,18.459999084472656,40.279998779296875,7.580999851226807,0,0,0,0,0,0,0,0,0,0,0,0,0,7.02094,0,2025-05-31 12:16:35.343859,
161,-1.3480000495910645,17.90999984741211,50.810001373291016,38.81999969482422,20.829999923706055,28.770000457763672,7.89300012588501,142.1999969482422,-23.56999969482422,21.93000030517578,-21.350000381469727,-6.046999931335449,3.2960000038146973,13.380000114440918,19.719999313354492,1.2979999780654907,0,0,0,0,0,0,0,0,0,0,0,0,0,7.02094,0,2025-05-31 12:16:35.343859,
162,-37.599998474121094,-10.100000381469727,14.609999656677246,24.280000686645508,-20.0,6.172999858856201,-9.253999710083008,136.1999969482422,-33.79999923706055,15.949999809265137,-34.25,-25.030000686645508,-2.2750000953674316,20.170000076293945,-9.722000122070312,-2.2249999046325684,0,0,0,0,0,0,0,0,0,0,0,0,0,7.067704,0,2025-05-31 12:16:35.390623,
163,-43.13999938964844,-4.395999908447266,17.149999618530273,25.399999618530273,-16.290000915527344,11.930000305175781,2.122999906539917,145.6999969482422,-19.520000457763672,50.939998626708984,-3.8389999866485596,-14.579999923706055,14.510000228881836,32.349998474121094,-12.229999542236328,16.110000610351562,0,0,0,0,0,0,0,0,0,0,0,0,0,7.067704,0,2025-05-31 12:16:35.390623,
164,-31.68000030517578,6.445000171661377,33.25,24.030000686645508,8.555999755859375,8.42300033569336,-1.0329999923706055,135.60000610351562,-18.280000686645508,41.130001068115234,-13.510000228881836,-27.6200008392334,7.355000019073486,24.719999313354492,-6.676000118255615,30.979999542236328,0,0,0,0,0,0,0,0,0,0,0,0,0,7.067704,0,2025-05-31 12:16:35.390623,
165,-50.380001068115234,-9.972999572753906,10.369999885559082,1.687000036239624,-1.652999997138977,-19.459999084472656,-27.459999084472656,112.4000015258789,-42.040000915527344,23.149999618530273,-68.86000061035156,-62.529998779296875,-21.030000686645508,-5.831999778747559,-30.90999984741211,8.020999908447266,0,0,0,0,0,0,0,0,0,0,0,0,0,7.067704,0,2025-05-31 12:16:35.390623,
166,-79.05000305175781,-30.489999771118164,-23.540000915527344,-18.079999923706055,-28.81999969482422,-36.0099983215332,-38.4900016784668,100.19999694824219,-69.04000091552734,-2.5,-79.13999938964844,-66.30000305175781,-24.079999923706055,-13.819999694824219,-61.5099983215332,-20.520000457763672,0,0,0,0,0,0,0,0,0,0,0,0,0,7.067704,0,2025-05-31 12:16:35.390623,
167,-65.54000091552734,-28.989999771118164,-12.34000015258789,-5.1519999504089355,-16.149999618530273,-20.1200008392334,-18.760000228881836,108.30000305175781,-37.56999969482422,-27.530000686645508,-29.860000610351562,-26.8799991607666,8.557999610900879,24.110000610351562,-48.779998779296875,-0.23739999532699585,0,0,0,0,0,0,0,0,0,0,0,0,0,7.116262,0,2025-05-31 12:16:35.439181,
168,-24.979999542236328,-6.130000114440918,26.530000686645508,23.290000915527344,19.75,3.9790000915527344,3.302999973297119,129.89999389648438,-5.3470001220703125,21.979999542236328,-0.8697999715805054,3.7149999141693115,26.239999771118164,37.34000015258789,-2.5829999446868896,40.279998779296875,0,0,0,0,0,0,0,0,0,0,0,0,0,7.116262,0,2025-05-31 12:16:35.439181,
169,-17.65999984741211,5.01200008392334,35.779998779296875,22.799999237060547,18.860000610351562,4.208000183105469,2.2679998874664307,130.6999969482422,-51.029998779296875,50.279998779296875,-26.90999984741211,-7.519000053405762,4.616000175476074,-3.8519999980926514,22.09000015258789,38.5,0,0,0,0,0,0,0,0,0,0,0,0,0,7.116262,0,2025-05-31 12:16:35.439181,
170,-34.84000015258789,-5.254000186920166,23.940000534057617,8.833999633789062,-1.6929999589920044,-2.4590001106262207,-0.7979000210762024,114.0999984741211,-58.15999984741211,-3.388000011444092,-42.95000076293945,-12.789999961853027,0.09650000184774399,-13.800000190734863,19.079999923706055,21.040000915527344,0,0,0,0,0,0,0,0,0,0,0,0,0,7.116262,0,2025-05-31 12:16:35.439181,
171,-22.1299991607666,1.4589999914169312,30.389999389648438,22.739999771118164,3.0220000743865967,6.703000068664551,9.465999603271484,117.0999984741211,12.930000305175781,-9.784000396728516,-12.619999885559082,17.780000686645508,33.54999923706055,23.649999618530273,30.649999618530273,45.90999984741211,0,0,0,0,0,0,0,0,0,0,0,0,0,7.116262,0,2025-05-31 12:16:35.439181,
172,12.850000381469727,22.729999542236328,43.7599983215332,39.529998779296875,22.170000076293945,10.170000076293945,10.850000381469727,120.69999694824219,34.5,19.209999084472656,14.859999656677246,42.68000030517578,51.189998626708984,33.83000183105469,61.720001220703125,89.19000244140625,0,0,0,0,0,0,0,0,0,0,0,0,0,7.166363,0,2025-05-31 12:16:35.489282,
173,22.3700008392334,19.65999984741211,40.7400016784668,23.670000076293945,31.8799991607666,-2.8350000381469727,-4.5,98.94999694824219,3.2170000076293945,6.4070000648498535,9.890999794006348,32.66999816894531,36.06999969482422,17.049999237060547,77.16999816894531,98.0199966430664,0,0,0,0,0,0,0,0,0,0,0,0,0,7.166363,0,2025-05-31 12:16:35.489282,
174,-8.718999862670898,-1.7319999933242798,28.459999084472656,2.9730000495910645,23.40999984741211,-15.069999694824219,-18.649999618530273,88.47000122070312,-16.049999237060547,24.309999465942383,-5.489999771118164,2.9000000953674316,21.040000915527344,18.299999237060547,61.33000183105469,77.08999633789062,0,0,0,0,0,0,0,0,0,0,0,0,0,7.166363,0,2025-05-31 12:16:35.489282,
175,-34.810001373291016,-4.790999889373779,28.15999984741211,14.6899995803833,17.639999389648438,-6.617000102996826,-8.444999694824219,114.0,-11.550000190734863,73.93000030517578,0.006399999838322401,-2.194000005722046,30.290000915527344,36.4900016784668,35.040000915527344,66.72000122070312,0,0,0,0,0,0,0,0,0,0,0,0,0,7.166363,0,2025-05-31 12:16:35.489282,
176,-7.434999942779541,19.809999465942383,41.52000045776367,34.279998779296875,36.29999923706055,19.959999084472656,17.329999923706055,134.60000610351562,16.8799991607666,60.939998626708984,23.6299991607666,26.399999618530273,42.15999984741211,41.20000076293945,24.1299991607666,72.69000244140625,0,0,0,0,0,0,0,0,0,0,0,0,0,7.166363,0,2025-05-31 12:16:35.489282,
177,22.549999237060547,30.100000381469727,38.279998779296875,21.770000457763672,36.619998931884766,19.81999969482422,11.289999961853027,115.0999984741211,14.399999618530273,9.295999526977539,22.510000228881836,30.700000762939453,18.790000915527344,15.460000038146973,23.520000457763672,57.650001525878906,0,0,0,0,0,0,0,0,0,0,0,0,0,7.218183,0,2025-05-31 12:16:35.541102,
178,2.8959999084472656,5.497000217437744,21.479999542236328,6.126999855041504,7.315000057220459,-5.182000160217285,-14.449999809265137,90.38999938964844,-19.09000015258789,-9.428000450134277,5.828999996185303,17.299999237060547,2.9110000133514404,1.2829999923706055,20.520000457763672,22.170000076293945,0,0,0,0,0,0,0,0,0,0,0,0,0,7.218183,0,2025-05-31 12:16:35.541102,
179,-2.3459999561309814,1.7100000381469727,31.790000915527344,23.90999984741211,12.300000190734863,4.626999855041504,-3.505000114440918,97.33000183105469,4.322000026702881,1.503000020980835,18.709999084472656,42.0,37.72999954223633,27.639999389648438,26.690000534057617,14.630000114440918,0,0,0,0,0,0,0,0,0,0,0,0,0,7.218183,0,2025-05-31 12:16:35.541102,
180,30.989999771118164,31.229999542236328,50.0,37.61000061035156,34.279998779296875,29.969999313354492,18.209999084472656,105.5,36.63999938964844,25.729999542236328,33.400001525878906,66.37000274658203,59.709999084472656,36.70000076293945,44.029998779296875,36.70000076293945,0,0,0,0,0,0,0,0,0,0,0,0,0,7.218183,0,2025-05-31 12:16:35.541102,
181,42.84000015258789,41.08000183105469,39.41999816894531,22.209999084472656,17.309999465942383,31.90999984741211,18.299999237060547,96.04000091552734,5.116000175476074,42.40999984741211,28.639999389648438,63.52000045776367,50.40999984741211,18.530000686645508,56.36000061035156,51.380001068115234,0,0,0,0,0,0,0,0,0,0,0,0,0,7.218183,0,2025-05-31 12:16:35.541102,
182,46.529998779296875,44.84000015258789,34.119998931884766,19.270000457763672,7.980000019073486,47.630001068115234,34.5,97.94000244140625,-6.679999828338623,23.209999084472656,36.220001220703125,72.44999694824219,64.18000030517578,32.54999923706055,60.13999938964844,56.040000915527344,0,0,0,0,0,0,0,0,0,0,0,0,0,7.256731,0,2025-05-31 12:16:35.579650,
183,64.01000213623047,67.20999908447266,46.349998474121094,36.58000183105469,27.309999465942383,67.5,52.79999923706055,104.0999984741211,11.010000228881836,7.611999988555908,34.529998779296875,69.8499984741211,77.1500015258789,53.58000183105469,53.5099983215332,59.130001068115234,0,0,0,0,0,0,0,0,0,0,0,0,0,7.256731,0,2025-05-31 12:16:35.579650,
184,53.13999938964844,72.91999816894531,41.150001525878906,35.5099983215332,22.309999465942383,54.06999969482422,38.70000076293945,100.19999694824219,-13.739999771118164,29.75,12.09000015258789,47.2599983215332,68.31999969482422,43.099998474121094,39.29999923706055,57.209999084472656,0,0,0,0,0,0,0,0,0,0,0,0,0,7.256731,0,2025-05-31 12:16:35.579650,
185,36.83000183105469,68.56999969482422,36.459999084472656,26.06999969482422,9.449000358581543,48.66999816894531,34.540000915527344,111.19999694824219,-21.389999389648438,49.66999816894531,23.65999984741211,56.36000061035156,77.12000274658203,46.439998626708984,39.93000030517578,59.5,0,0,0,0,0,0,0,0,0,0,0,0,0,7.256731,0,2025-05-31 12:16:35.579650,
186,49.29999923706055,71.54000091552734,42.119998931884766,30.010000228881836,12.4399995803833,53.540000915527344,38.38999938964844,118.0,8.03499984741211,58.630001068115234,44.27000045776367,66.4000015258789,80.94000244140625,64.5199966430664,55.849998474121094,70.6500015258789,0,0,0,0,0,0,0,0,0,0,0,0,0,7.256731,0,2025-05-31 12:16:35.579650,
187,40.88999938964844,48.959999084472656,26.510000228881836,23.420000076293945,-2.2839999198913574,30.010000228881836,13.6899995803833,99.77999877929688,-9.335000038146973,59.9900016784668,21.719999313354492,44.25,58.04999923706055,56.540000915527344,61.93000030517578,78.80000305175781,0,0,0,0,0,0,0,0,0,0,0,0,0,7.306005,0,2025-05-31 12:16:35.628924,
188,22.09000015258789,24.860000610351562,26.850000381469727,18.489999771118164,-8.515000343322754,26.690000534057617,12.720000267028809,107.0999984741211,-28.09000015258789,43.33000183105469,14.59000015258789,46.279998779296875,56.33000183105469,47.779998779296875,60.27000045776367,82.81999969482422,0,0,0,0,0,0,0,0,0,0,0,0,0,7.306005,0,2025-05-31 12:16:35.628924,
189,42.77000045776367,41.0,58.4900016784668,40.290000915527344,18.040000915527344,56.97999954223633,43.45000076293945,132.89999389648438,3.562000036239624,49.75,38.290000915527344,66.25,67.80000305175781,52.849998474121094,64.9000015258789,83.58999633789062,0,0,0,0,0,0,0,0,0,0,0,0,0,7.306005,0,2025-05-31 12:16:35.628924,
190,53.84000015258789,53.380001068115234,47.880001068115234,46.11000061035156,21.209999084472656,52.290000915527344,37.970001220703125,124.69999694824219,6.383999824523926,61.06999969482422,36.52000045776367,61.33000183105469,60.380001068115234,50.790000915527344,69.36000061035156,73.16999816894531,0,0,0,0,0,0,0,0,0,0,0,0,0,7.306005,0,2025-05-31 12:16:35.628924,
191,35.540000915527344,43.380001068115234,19.079999923706055,31.440000534057617,4.767000198364258,31.489999771118164,21.309999465942383,118.30000305175781,-8.345999717712402,23.020000457763672,42.689998626708984,63.310001373291016,63.150001525878906,52.2599983215332,70.16000366210938,61.869998931884766,0,0,0,0,0,0,0,0,0,0,0,0,0,7.306005,0,2025-05-31 12:16:35.628924,
192,36.33000183105469,40.22999954223633,37.04999923706055,39.52000045776367,15.210000038146973,37.02000045776367,29.969999313354492,127.5999984741211,16.219999313354492,1.0770000219345093,64.30999755859375,65.05999755859375,65.33000183105469,47.18000030517578,64.66999816894531,60.29999923706055,0,0,0,0,0,0,0,0,0,0,0,0,0,7.349943,0,2025-05-31 12:16:35.672862,
193,35.34000015258789,27.540000915527344,43.630001068115234,41.13999938964844,24.610000610351562,32.0099983215332,24.760000228881836,110.0,22.059999465942383,18.010000228881836,39.540000915527344,34.90999984741211,39.630001068115234,22.079999923706055,45.16999816894531,54.9900016784668,0,0,0,0,0,0,0,0,0,0,0,0,0,7.349943,0,2025-05-31 12:16:35.672862,
194,18.280000686645508,9.57699966430664,25.690000534057617,21.549999237060547,19.149999618530273,23.700000762939453,17.030000686645508,96.12999725341797,13.510000228881836,6.3429999351501465,11.890000343322754,21.100000381469727,27.1299991607666,14.34000015258789,24.489999771118164,46.97999954223633,0,0,0,0,0,0,0,0,0,0,0,0,0,7.349943,0,2025-05-31 12:16:35.672862,
195,28.920000076293945,18.139999389648438,40.7599983215332,31.760000228881836,29.06999969482422,44.43000030517578,36.68000030517578,108.0,40.58000183105469,-4.421000003814697,20.56999969482422,32.70000076293945,31.68000030517578,20.100000381469727,13.670000076293945,45.58000183105469,0,0,0,0,0,0,0,0,0,0,0,0,0,7.349943,0,2025-05-31 12:16:35.672862,
196,50.66999816894531,26.649999618530273,48.400001525878906,53.66999816894531,36.4900016784668,54.81999969482422,46.88999938964844,101.0,39.939998626708984,14.170000076293945,15.930000305175781,28.450000762939453,23.899999618530273,11.890000343322754,6.828000068664551,39.33000183105469,0,0,0,0,0,0,0,0,0,0,0,0,0,7.349943,0,2025-05-31 12:16:35.672862,
197,51.25,22.5,33.540000915527344,42.29999923706055,26.139999389648438,47.119998931884766,41.349998474121094,84.58000183105469,10.789999961853027,15.1899995803833,21.440000534057617,32.779998779296875,30.09000015258789,16.18000030517578,13.130000114440918,33.86000061035156,0,0,0,0,0,0,0,0,0,0,0,0,0,7.402549,0,2025-05-31 12:16:35.725468,
198,57.08000183105469,37.939998626708984,55.72999954223633,33.279998779296875,37.459999084472656,65.47000122070312,59.08000183105469,93.87999725341797,27.969999313354492,16.469999313354492,60.83000183105469,57.5099983215332,52.90999984741211,37.130001068115234,35.130001068115234,45.400001525878906,0,0,0,0,0,0,0,0,0,0,0,0,0,7.402549,0,2025-05-31 12:16:35.725468,
199,75.76000213623047,64.61000061035156,76.04000091552734,46.0099983215332,69.81999969482422,94.06999969482422,86.62999725341797,108.30000305175781,49.650001525878906,54.310001373291016,77.48999786376953,72.7300033569336,67.69000244140625,54.0099983215332,57.5,64.7300033569336,0,0,0,0,0,0,0,0,0,0,0,0,0,7.402549,0,2025-05-31 12:16:35.725468,
200,86.43000030517578,79.19000244140625,50.540000915527344,43.400001525878906,73.45999908447266,93.18000030517578,86.19999694824219,106.5999984741211,48.20000076293945,80.02999877929688,76.20999908447266,83.73999786376953,83.0199966430664,67.95999908447266,83.0999984741211,85.08999633789062,0,0,0,0,0,0,0,0,0,0,0,0,0,7.402549,0,2025-05-31 12:16:35.725468,
201,88.48999786376953,82.25,37.869998931884766,29.65999984741211,55.0099983215332,76.47000122070312,69.70999908447266,92.94999694824219,69.79000091552734,49.0099983215332,87.97000122070312,90.13999938964844,90.23999786376953,68.56999969482422,106.4000015258789,101.80000305175781,0,0,0,0,0,0,0,0,0,0,0,0,0,7.402549,0,2025-05-31 12:16:35.725468,
202,88.87999725341797,77.5999984741211,54.08000183105469,33.310001373291016,56.33000183105469,72.8499984741211,66.27999877929688,78.5999984741211,86.27999877929688,15.529999732971191,93.7699966430664,88.37000274658203,85.88999938964844,63.90999984741211,108.4000015258789,104.69999694824219,0,0,0,0,0,0,0,0,0,0,0,0,0,7.444545,0,2025-05-31 12:16:35.767464,
203,95.18000030517578,81.20999908447266,61.25,39.34000015258789,70.48999786376953,81.05999755859375,73.16000366210938,75.0999984741211,76.2300033569336,34.810001373291016,95.83000183105469,98.5999984741211,90.2699966430664,71.01000213623047,102.9000015258789,106.30000305175781,0,0,0,0,0,0,0,0,0,0,0,0,0,7.444545,0,2025-05-31 12:16:35.767464,
204,104.19999694824219,91.4000015258789,50.209999084472656,28.84000015258789,69.95999908447266,81.91000366210938,73.33000183105469,74.61000061035156,66.02999877929688,55.810001373291016,97.94000244140625,103.0,86.79000091552734,66.87999725341797,98.66999816894531,108.4000015258789,0,0,0,0,0,0,0,0,0,0,0,0,0,7.444545,0,2025-05-31 12:16:35.767464,
205,96.44999694824219,83.98999786376953,25.579999923706055,17.850000381469727,52.599998474121094,72.22000122070312,65.01000213623047,72.30000305175781,51.88999938964844,42.029998779296875,85.27999877929688,84.01000213623047,70.79000091552734,51.540000915527344,81.0199966430664,91.12000274658203,0,0,0,0,0,0,0,0,0,0,0,0,0,7.444545,0,2025-05-31 12:16:35.767464,
206,76.45999908447266,68.05000305175781,17.790000915527344,21.559999465942383,40.029998779296875,62.310001373291016,54.9900016784668,76.31999969482422,55.349998474121094,25.8700008392334,63.220001220703125,63.0099983215332,57.04999923706055,38.41999816894531,56.04999923706055,63.08000183105469,0,0,0,0,0,0,0,0,0,0,0,0,0,7.444545,0,2025-05-31 12:16:35.767464,
207,59.2400016784668,46.83000183105469,42.029998779296875,26.709999084472656,49.689998626708984,46.349998474121094,38.040000915527344,73.19000244140625,74.31999969482422,14.369999885559082,39.310001373291016,41.439998626708984,28.940000534057617,15.770000457763672,31.299999237060547,41.810001373291016,0,0,0,0,0,0,0,0,0,0,0,0,0,7.495711,0,2025-05-31 12:16:35.818630,
208,43.72999954223633,9.595000267028809,50.84000015258789,21.989999771118164,61.029998779296875,24.049999237060547,14.050000190734863,60.81999969482422,61.66999816894531,26.479999542236328,33.11000061035156,29.65999984741211,8.446999549865723,8.916000366210938,13.819999694824219,35.81999969482422,0,0,0,0,0,0,0,0,0,0,0,0,0,7.495711,0,2025-05-31 12:16:35.818630,
209,42.060001373291016,-4.567999839782715,30.030000686645508,19.25,56.36000061035156,15.970000267028809,2.3340001106262207,57.38999938964844,51.040000915527344,50.36000061035156,54.349998474121094,48.45000076293945,25.469999313354492,26.350000381469727,31.200000762939453,58.06999969482422,0,0,0,0,0,0,0,0,0,0,0,0,0,7.495711,0,2025-05-31 12:16:35.818630,
210,51.9900016784668,14.239999771118164,17.639999389648438,14.15999984741211,50.310001373291016,18.559999465942383,1.5989999771118164,50.400001525878906,60.630001068115234,15.130000114440918,64.48999786376953,65.1500015258789,36.47999954223633,20.780000686645508,67.16999816894531,81.0199966430664,0,0,0,0,0,0,0,0,0,0,0,0,0,7.495711,0,2025-05-31 12:16:35.818630,
211,50.18000030517578,20.450000762939453,28.190000534057617,-3.381999969482422,46.93000030517578,19.979999542236328,1.0759999752044678,43.45000076293945,51.38999938964844,-16.93000030517578,60.66999816894531,60.849998474121094,30.780000686645508,6.918000221252441,69.52999877929688,63.790000915527344,0,0,0,0,0,0,0,0,0,0,0,0,0,7.495711,0,2025-05-31 12:16:35.818630,
212,53.33000183105469,26.8700008392334,50.119998931884766,-4.3470001220703125,50.34000015258789,35.97999954223633,15.630000114440918,60.560001373291016,58.779998779296875,27.059999465942383,69.16000366210938,60.7400016784668,40.849998474121094,22.139999389648438,46.27000045776367,35.040000915527344,0,0,0,0,0,0,0,0,0,0,0,0,0,7.537392,0,2025-05-31 12:16:35.860311,
213,66.38999938964844,44.529998779296875,51.130001068115234,13.449999809265137,59.93000030517578,52.09000015258789,29.440000534057617,65.11000061035156,76.66999816894531,34.150001525878906,66.33000183105469,62.529998779296875,43.540000915527344,32.560001373291016,38.45000076293945,35.380001068115234,0,0,0,0,0,0,0,0,0,0,0,0,0,7.537392,0,2025-05-31 12:16:35.860311,
214,56.720001220703125,29.059999465942383,18.479999542236328,9.39799976348877,45.2599983215332,35.91999816894531,12.199999809265137,38.70000076293945,43.900001525878906,-18.799999237060547,51.779998779296875,61.15999984741211,32.43000030517578,26.1299991607666,48.81999969482422,52.540000915527344,0,0,0,0,0,0,0,0,0,0,0,0,0,7.537392,0,2025-05-31 12:16:35.860311,
215,45.4900016784668,8.62399959564209,-1.5269999504089355,-1.1089999675750732,17.780000686645508,21.940000534057617,0.6959999799728394,37.33000183105469,20.940000534057617,-12.15999984741211,51.09000015258789,64.80999755859375,39.130001068115234,27.5,58.79999923706055,66.2300033569336,0,0,0,0,0,0,0,0,0,0,0,0,0,7.537392,0,2025-05-31 12:16:35.860311,
216,58.58000183105469,31.239999771118164,12.140000343322754,10.109999656677246,18.700000762939453,40.36000061035156,19.489999771118164,64.23999786376953,44.66999816894531,33.52000045776367,45.97999954223633,59.119998931884766,42.25,23.90999984741211,56.4900016784668,64.47000122070312,0,0,0,0,0,0,0,0,0,0,0,0,0,7.537392,0,2025-05-31 12:16:35.860311,
217,59.540000915527344,43.81999969482422,26.1200008392334,12.65999984741211,26.799999237060547,46.439998626708984,24.18000030517578,69.45999908447266,40.119998931884766,37.68000030517578,36.36000061035156,41.63999938964844,25.239999771118164,14.470000267028809,42.54999923706055,43.16999816894531,0,0,0,0,0,0,0,0,0,0,0,0,0,7.592615,0,2025-05-31 12:16:35.915534,
218,42.43000030517578,22.479999542236328,27.079999923706055,2.686000108718872,15.960000038146973,32.779998779296875,13.760000228881836,56.59000015258789,16.8700008392334,27.09000015258789,39.0099983215332,31.309999465942383,24.920000076293945,21.950000762939453,26.190000534057617,25.780000686645508,0,0,0,0,0,0,0,0,0,0,0,0,0,7.592615,0,2025-05-31 12:16:35.915534,
219,42.25,27.790000915527344,27.110000610351562,9.77299976348877,14.399999618530273,50.189998626708984,35.599998474121094,56.34000015258789,23.760000228881836,31.440000534057617,36.88999938964844,34.40999984741211,47.47999954223633,34.849998474121094,15.319999694824219,30.09000015258789,0,0,0,0,0,0,0,0,0,0,0,0,0,7.592615,0,2025-05-31 12:16:35.915534,
220,58.0099983215332,63.11000061035156,39.880001068115234,26.3799991607666,38.93000030517578,89.41000366210938,77.22000122070312,73.55999755859375,30.079999923706055,33.20000076293945,33.61000061035156,51.18000030517578,71.36000061035156,44.279998779296875,20.920000076293945,45.310001373291016,0,0,0,0,0,0,0,0,0,0,0,0,0,7.592615,0,2025-05-31 12:16:35.915534,
221,72.33999633789062,84.5999984741211,59.77000045776367,39.720001220703125,58.20000076293945,102.69999694824219,91.9000015258789,89.68000030517578,26.5,30.520000457763672,44.439998626708984,73.2300033569336,92.30999755859375,59.81999969482422,44.689998626708984,58.75,0,0,0,0,0,0,0,0,0,0,0,0,0,7.592615,0,2025-05-31 12:16:35.915534,
222,80.25,88.62999725341797,50.810001373291016,42.84000015258789,42.5099983215332,84.8499984741211,73.75,74.55999755859375,30.209999084472656,26.93000030517578,48.0,77.5,89.55999755859375,57.18000030517578,60.2400016784668,57.02000045776367,0,0,0,0,0,0,0,0,0,0,0,0,0,7.638694,0,2025-05-31 12:16:35.961613,
223,72.66000366210938,73.19999694824219,22.110000610351562,28.719999313354492,18.049999237060547,57.06999969482422,46.2599983215332,40.369998931884766,31.360000610351562,33.400001525878906,33.43000030517578,63.7400016784668,61.41999816894531,29.540000915527344,49.29999923706055,34.70000076293945,0,0,0,0,0,0,0,0,0,0,0,0,0,7.638694,0,2025-05-31 12:16:35.961613,
224,56.93000030517578,52.93000030517578,25.299999237060547,29.0,10.430000305175781,49.790000915527344,41.790000915527344,46.16999816894531,35.93000030517578,81.41999816894531,28.8700008392334,62.59000015258789,61.93000030517578,29.770000457763672,37.900001525878906,19.450000762939453,0,0,0,0,0,0,0,0,0,0,0,0,0,7.638694,0,2025-05-31 12:16:35.961613,
225,56.2400016784668,69.9000015258789,34.95000076293945,44.29999923706055,-9.6850004196167,61.189998626708984,57.220001220703125,74.58000183105469,29.860000610351562,97.41000366210938,42.790000915527344,65.77999877929688,79.2699966430664,50.40999984741211,46.459999084472656,29.040000915527344,0,0,0,0,0,0,0,0,0,0,0,0,0,7.638694,0,2025-05-31 12:16:35.961613,
226,46.04999923706055,75.87999725341797,12.010000228881836,21.520000457763672,-36.150001525878906,37.91999816894531,37.7400016784668,47.90999984741211,-12.789999961853027,-15.59000015258789,33.63999938964844,30.799999237060547,47.34000015258789,29.889999389648438,44.63999938964844,34.119998931884766,0,0,0,0,0,0,0,0,0,0,0,0,0,7.638694,0,2025-05-31 12:16:35.961613,
227,1.0720000267028809,24.389999389648438,-5.193999767303467,-11.210000038146973,-45.77000045776367,-6.736000061035156,-2.9749999046325684,9.822999954223633,-42.7400016784668,-91.0999984741211,3.115999937057495,-3.4560000896453857,20.25,17.420000076293945,20.93000030517578,22.739999771118164,0,0,0,0,0,0,0,0,0,0,0,0,0,7.685742,0,2025-05-31 12:16:36.008661,
228,-20.139999389648438,13.670000076293945,-27.670000076293945,-8.85200023651123,-81.56999969482422,-8.48900032043457,-0.04580000042915344,32.619998931884766,-39.810001373291016,8.378000259399414,6.573999881744385,13.970000267028809,51.7400016784668,59.43000030517578,14.699999809265137,23.190000534057617,0,0,0,0,0,0,0,0,0,0,0,0,0,7.685742,0,2025-05-31 12:16:36.008661,
229,-4.291999816894531,50.529998779296875,-78.12000274658203,-27.81999969482422,-116.4000015258789,-5.973999977111816,2.941999912261963,36.81999969482422,-50.97999954223633,64.0,11.1899995803833,9.765999794006348,43.029998779296875,55.459999084472656,18.709999084472656,25.139999389648438,0,0,0,0,0,0,0,0,0,0,0,0,0,7.685742,0,2025-05-31 12:16:36.008661,
230,-24.309999465942383,12.210000038146973,-71.5999984741211,-59.27000045776367,-66.19999694824219,-40.459999084472656,-34.47999954223633,-11.109999656677246,-43.02000045776367,-0.10620000213384628,-22.3799991607666,-38.72999954223633,-15.15999984741211,1.6100000143051147,-7.482999801635742,0.21930000185966492,0,0,0,0,0,0,0,0,0,0,0,0,0,7.685742,0,2025-05-31 12:16:36.008661,
231,-49.849998474121094,-39.380001068115234,-9.918000221252441,-24.6200008392334,4.283999919891357,-45.5099983215332,-40.16999816894531,-11.949999809265137,5.301000118255615,19.850000381469727,-19.43000030517578,-35.040000915527344,-4.790999889373779,17.6299991607666,-31.079999923706055,-13.630000114440918,0,0,0,0,0,0,0,0,0,0,0,0,0,7.685742,0,2025-05-31 12:16:36.008661,
232,-20.520000457763672,-4.3420000076293945,6.171000003814697,17.010000228881836,9.9350004196167,-12.880000114440918,-10.890000343322754,22.510000228881836,19.229999542236328,78.0999984741211,14.369999885559082,-4.164999961853027,30.530000686645508,49.02000045776367,-21.639999389648438,8.055000305175781,0,0,0,0,0,0,0,0,0,0,0,0,0,7.728615,0,2025-05-31 12:16:36.051534,
233,-2.2820000648498535,15.1899995803833,4.767000198364258,-3.003000020980835,0.3395000100135803,-7.369999885559082,-10.760000228881836,13.359999656677246,8.255000114440918,26.770000457763672,-3.427000045776367,-24.309999465942383,-0.13650000095367432,8.074999809265137,-23.549999237060547,6.51800012588501,0,0,0,0,0,0,0,0,0,0,0,0,0,7.728615,0,2025-05-31 12:16:36.051534,
234,-18.969999313354492,-18.299999237060547,12.789999961853027,-23.75,4.357999801635742,-17.219999313354492,-22.309999465942383,-12.649999618530273,12.75,-29.719999313354492,-27.170000076293945,-41.029998779296875,-26.5,-20.270000457763672,-44.470001220703125,-36.290000915527344,0,0,0,0,0,0,0,0,0,0,0,0,0,7.728615,0,2025-05-31 12:16:36.051534,
235,-19.079999923706055,-25.280000686645508,-16.139999389648438,-25.920000076293945,2.263000011444092,-15.8100004196167,-24.59000015258789,-26.309999465942383,-14.699999809265137,-14.920000076293945,-21.360000610351562,-35.880001068115234,-21.899999618530273,-15.0600004196167,-49.0,-64.83000183105469,0,0,0,0,0,0,0,0,0,0,0,0,0,7.728615,0,2025-05-31 12:16:36.051534,
236,-27.15999984741211,-32.0099983215332,-23.479999542236328,-33.880001068115234,4.158999919891357,-22.31999969482422,-35.36000061035156,-34.4900016784668,-47.90999984741211,-10.449999809265137,-38.7599983215332,-59.75,-44.36000061035156,-33.27000045776367,-51.849998474121094,-69.41999816894531,0,0,0,0,0,0,0,0,0,0,0,0,0,7.728615,0,2025-05-31 12:16:36.051534,
237,-54.40999984741211,-58.22999954223633,15.930000305175781,-19.190000534057617,0.7053999900817871,-26.450000762939453,-39.41999816894531,-25.0,-29.200000762939453,-37.25,-52.779998779296875,-75.08999633789062,-56.15999984741211,-32.25,-63.52000045776367,-72.16999816894531,0,0,0,0,0,0,0,0,0,0,0,0,0,7.772304,0,2025-05-31 12:16:36.095223,
238,-52.34000015258789,-46.540000915527344,17.09000015258789,2.884999990463257,-14.949999809265137,-14.699999809265137,-27.760000228881836,-12.710000038146973,-15.949999809265137,-38.61000061035156,-32.16999816894531,-52.2599983215332,-26.780000686645508,-5.229000091552734,-53.279998779296875,-59.459999084472656,0,0,0,0,0,0,0,0,0,0,0,0,0,7.772304,0,2025-05-31 12:16:36.095223,
239,-30.829999923706055,-15.420000076293945,-2.986999988555908,-0.9417999982833862,-20.770000457763672,-4.9070000648498535,-17.780000686645508,-12.15999984741211,-29.350000381469727,1.2940000295639038,-22.809999465942383,-32.810001373291016,-10.079999923706055,-2.7260000705718994,-25.329999923706055,-30.5,0,0,0,0,0,0,0,0,0,0,0,0,0,7.772304,0,2025-05-31 12:16:36.095223,
240,-18.860000610351562,-8.020000457763672,4.89300012588501,4.375,-19.899999618530273,2.0460000038146973,-10.100000381469727,-3.2300000190734863,-20.09000015258789,32.66999816894531,-23.459999084472656,-19.309999465942383,-9.121000289916992,-1.6699999570846558,-5.8379998207092285,-11.859999656677246,0,0,0,0,0,0,0,0,0,0,0,0,0,7.772304,0,2025-05-31 12:16:36.095223,
241,-8.960000038146973,-4.9120001792907715,9.70199966430664,22.739999771118164,-14.069999694824219,9.163999557495117,-3.359999895095825,9.24899959564209,-2.818000078201294,15.430000305175781,-11.079999923706055,-2.3540000915527344,-0.689300000667572,1.402999997138977,8.692000389099121,-13.220000267028809,0,0,0,0,0,0,0,0,0,0,0,0,0,7.772304,0,2025-05-31 12:16:36.095223,
242,-5.065000057220459,-0.850600004196167,12.890000343322754,19.110000610351562,-0.7942000031471252,6.306000232696533,-4.310999870300293,9.321999549865723,-11.979999542236328,-25.170000076293945,-10.25,-0.6656000018119812,-2.4509999752044678,-14.720000267028809,17.43000030517578,-28.8799991607666,0,0,0,0,0,0,0,0,0,0,0,0,0,7.819877,0,2025-05-31 12:16:36.142796,
243,-12.479999542236328,-7.6620001792907715,24.06999969482422,10.609999656677246,-6.533999919891357,0.6128000020980835,-7.199999809265137,6.0,-44.209999084472656,-36.099998474121094,-24.239999771118164,-9.930000305175781,-5.531000137329102,-8.097999572753906,9.088000297546387,-40.63999938964844,0,0,0,0,0,0,0,0,0,0,0,0,0,7.819877,0,2025-05-31 12:16:36.142796,
244,-24.549999237060547,-7.696000099182129,23.40999984741211,20.149999618530273,-25.200000762939453,4.465000152587891,-1.4630000591278076,8.21399974822998,-68.25,0.6381999850273132,-38.220001220703125,-24.559999465942383,-0.8589000105857849,11.0,-9.699999809265137,-35.88999938964844,0,0,0,0,0,0,0,0,0,0,0,0,0,7.819877,0,2025-05-31 12:16:36.142796,
245,-37.790000915527344,-0.11429999768733978,20.18000030517578,29.860000610351562,-22.889999389648438,11.420000076293945,6.980999946594238,15.390000343322754,-54.790000915527344,30.469999313354492,-60.16999816894531,-50.25,-21.010000228881836,-16.030000686645508,-37.22999954223633,-43.22999954223633,0,0,0,0,0,0,0,0,0,0,0,0,0,7.819877,0,2025-05-31 12:16:36.142796,
246,-44.25,-12.649999618530273,10.020000457763672,17.299999237060547,-16.1200008392334,4.138000011444092,-0.5547000169754028,14.170000076293945,-39.790000915527344,2.0899999141693115,-75.98999786376953,-63.09000015258789,-50.130001068115234,-48.060001373291016,-72.12999725341797,-73.4800033569336,0,0,0,0,0,0,0,0,0,0,0,0,0,7.819877,0,2025-05-31 12:16:36.142796,
247,-43.02000045776367,-32.9900016784668,-12.979999542236328,-10.9399995803833,-28.510000228881836,-17.809999465942383,-21.440000534057617,-4.190999984741211,-45.209999084472656,-31.90999984741211,-58.439998626708984,-45.4900016784668,-42.47999954223633,-36.630001068115234,-82.56999969482422,-77.80000305175781,0,0,0,0,0,0,0,0,0,0,0,0,0,7.872897,0,2025-05-31 12:16:36.195816,
248,-39.18000030517578,-27.940000534057617,-8.593999862670898,-15.390000343322754,-33.220001220703125,-24.399999618530273,-24.969999313354492,-11.670000076293945,-26.399999618530273,-12.229999542236328,-32.0,-25.110000610351562,-27.959999084472656,-28.010000228881836,-54.13999938964844,-47.58000183105469,0,0,0,0,0,0,0,0,0,0,0,0,0,7.872897,0,2025-05-31 12:16:36.195816,
249,-32.95000076293945,-19.56999969482422,15.970000267028809,11.479999542236328,-16.5,-7.210000038146973,-6.650000095367432,6.175000190734863,-4.629000186920166,3.0869998931884766,-32.63999938964844,-24.34000015258789,-43.220001220703125,-43.810001373291016,-21.479999542236328,-38.77000045776367,0,0,0,0,0,0,0,0,0,0,0,0,0,7.872897,0,2025-05-31 12:16:36.195816,
250,-34.900001525878906,-37.7599983215332,9.491000175476074,23.6299991607666,-10.390000343322754,-3.99399995803833,-3.933000087738037,9.307999610900879,-19.65999984741211,-56.880001068115234,-42.36000061035156,-32.66999816894531,-60.36000061035156,-54.5099983215332,-7.1519999504089355,-57.56999969482422,0,0,0,0,0,0,0,0,0,0,0,0,0,7.872897,0,2025-05-31 12:16:36.195816,
251,-47.52000045776367,-63.25,-7.269000053405762,10.6899995803833,-22.350000381469727,-29.079999923706055,-30.1299991607666,-18.690000534057617,-27.030000686645508,-116.0,-41.209999084472656,-44.459999084472656,-70.1500015258789,-67.97000122070312,-4.245999813079834,-62.34000015258789,0,0,0,0,0,0,0,0,0,0,0,0,0,7.872897,0,2025-05-31 12:16:36.195816,
252,-60.40999984741211,-81.9000015258789,1.350000023841858,-0.2101999968290329,-28.399999618530273,-54.45000076293945,-57.040000915527344,-35.97999954223633,-26.739999771118164,-74.91999816894531,-45.83000183105469,-63.84000015258789,-90.72000122070312,-91.58000183105469,-13.350000381469727,-59.31999969482422,0,0,0,0,0,0,0,0,0,0,0,0,0,7.914958,0,2025-05-31 12:16:36.237877,
253,-79.27999877929688,-95.9800033569336,4.892000198364258,-5.684000015258789,-30.559999465942383,-64.61000061035156,-68.23999786376953,-27.260000228881836,-51.400001525878906,-24.309999465942383,-53.52000045776367,-77.91999816894531,-104.5999984741211,-92.79000091552734,-30.65999984741211,-72.88999938964844,0,0,0,0,0,0,0,0,0,0,0,0,0,7.914958,0,2025-05-31 12:16:36.237877,
254,-94.18000030517578,-93.83000183105469,-5.151000022888184,-2.5269999504089355,-31.760000228881836,-61.70000076293945,-64.2699966430664,-21.280000686645508,-51.5,-42.869998931884766,-38.27000045776367,-70.13999938964844,-93.54000091552734,-62.70000076293945,-35.349998474121094,-77.81999969482422,0,0,0,0,0,0,0,0,0,0,0,0,0,7.914958,0,2025-05-31 12:16:36.237877,
255,-80.01000213623047,-76.08000183105469,7.118000030517578,10.579999923706055,-21.8799991607666,-44.77000045776367,-44.810001373291016,-17.190000534057617,-8.27400016784668,-27.329999923706055,-0.12939999997615814,-44.08000183105469,-66.38999938964844,-24.3700008392334,-14.329999923706055,-47.43000030517578,0,0,0,0,0,0,0,0,0,0,0,0,0,7.914958,0,2025-05-31 12:16:36.237877,
256,-50.83000183105469,-52.779998779296875,28.90999984741211,14.710000038146973,-14.010000228881836,-20.450000762939453,-20.530000686645508,1.1430000066757202,32.54999923706055,20.75,38.40999984741211,-16.479999542236328,-32.27000045776367,7.718999862670898,23.0,-3.6989998817443848,0,0,0,0,0,0,0,0,0,0,0,0,0,7.914958,0,2025-05-31 12:16:36.237877,
257,-25.989999771118164,-24.65999984741211,23.8700008392334,10.869999885559082,-9.767999649047852,-8.168999671936035,-8.869999885559082,10.520000457763672,56.63999938964844,7.326000213623047,51.880001068115234,-7.09499979019165,-8.890000343322754,22.670000076293945,43.31999969482422,22.09000015258789,0,0,0,0,0,0,0,0,0,0,0,0,0,7.959866,0,2025-05-31 12:16:36.282785,
258,-14.329999923706055,-12.800000190734863,0.6480000019073486,0.5720000267028809,-3.2339999675750732,-23.520000457763672,-24.270000457763672,-5.316999912261963,40.04999923706055,-15.510000228881836,23.700000762939453,-28.209999084472656,-17.489999771118164,8.53600025177002,19.049999237060547,16.700000762939453,0,0,0,0,0,0,0,0,0,0,0,0,0,7.959866,0,2025-05-31 12:16:36.282785,
259,-43.599998474121094,-38.56999969482422,-24.84000015258789,-31.780000686645508,-21.600000381469727,-60.0,-63.36000061035156,-26.469999313354492,-20.469999313354492,-21.489999771118164,-30.479999542236328,-66.80999755859375,-50.08000183105469,-28.280000686645508,-31.200000762939453,-26.450000762939453,0,0,0,0,0,0,0,0,0,0,0,0,0,7.959866,0,2025-05-31 12:16:36.282785,
260,-88.95999908447266,-71.5199966430664,-47.2599983215332,-59.220001220703125,-50.0,-86.58999633789062,-89.5,-41.81999969482422,-45.709999084472656,-39.220001220703125,-66.12000274658203,-88.72000122070312,-77.93000030517578,-57.720001220703125,-71.05000305175781,-90.02999877929688,0,0,0,0,0,0,0,0,0,0,0,0,0,7.959866,0,2025-05-31 12:16:36.282785,
261,-89.23999786376953,-75.63999938964844,-48.61000061035156,-50.61000061035156,-39.11000061035156,-85.36000061035156,-86.2699966430664,-46.38999938964844,-23.690000534057617,-32.72999954223633,-56.209999084472656,-77.58999633789062,-89.0,-63.2599983215332,-86.94999694824219,-130.6999969482422,0,0,0,0,0,0,0,0,0,0,0,0,0,7.959866,0,2025-05-31 12:16:36.282785,
262,-77.44000244140625,-73.12000274658203,-36.91999816894531,-45.439998626708984,-25.219999313354492,-86.01000213623047,-90.66999816894531,-42.40999984741211,-27.31999969482422,-47.029998779296875,-30.440000534057617,-59.61000061035156,-96.22000122070312,-68.62999725341797,-75.8499984741211,-128.10000610351562,0,0,0,0,0,0,0,0,0,0,0,0,0,8.01282,0,2025-05-31 12:16:36.335739,
263,-100.19999694824219,-89.54000091552734,-54.939998626708984,-74.94000244140625,-57.72999954223633,-109.5,-114.30000305175781,-52.79999923706055,-45.279998779296875,-95.2699966430664,-27.6299991607666,-57.41999816894531,-98.5,-77.91999816894531,-45.869998931884766,-99.0199966430664,0,0,0,0,0,0,0,0,0,0,0,0,0,8.01282,0,2025-05-31 12:16:36.335739,
264,-103.5,-92.22000122070312,-89.2699966430664,-92.6500015258789,-82.68000030517578,-113.80000305175781,-113.4000015258789,-61.52000045776367,-29.420000076293945,-71.31999969482422,-23.899999618530273,-48.880001068115234,-76.31999969482422,-61.959999084472656,-18.100000381469727,-65.91999816894531,0,0,0,0,0,0,0,0,0,0,0,0,0,8.01282,0,2025-05-31 12:16:36.335739,
265,-63.09000015258789,-61.5,-82.44000244140625,-74.58999633789062,-60.84000015258789,-82.13999938964844,-82.11000061035156,-42.5,-3.256999969482422,-33.20000076293945,0.4648999869823456,-25.950000762939453,-47.93000030517578,-41.75,2.4690001010894775,-43.84000015258789,0,0,0,0,0,0,0,0,0,0,0,0,0,8.01282,0,2025-05-31 12:16:36.335739,
266,-41.27000045776367,-42.70000076293945,-65.9800033569336,-76.1500015258789,-52.25,-68.01000213623047,-70.0999984741211,-34.15999984741211,-2.4230000972747803,-52.43000030517578,4.355999946594238,-19.15999984741211,-40.779998779296875,-43.84000015258789,17.940000534057617,-34.4900016784668,0,0,0,0,0,0,0,0,0,0,0,0,0,8.01282,0,2025-05-31 12:16:36.335739,
267,-50.91999816894531,-47.93000030517578,-84.19000244140625,-100.5999984741211,-75.9800033569336,-76.11000061035156,-77.66000366210938,-41.959999084472656,-18.43000030517578,-18.440000534057617,-11.050000190734863,-24.110000610351562,-33.02000045776367,-30.459999084472656,18.200000762939453,-28.040000915527344,0,0,0,0,0,0,0,0,0,0,0,0,0,8.055009,0,2025-05-31 12:16:36.377928,
268,-53.619998931884766,-40.5099983215332,-79.8499984741211,-88.29000091552734,-82.16000366210938,-70.81999969482422,-74.37999725341797,-31.510000228881836,-20.329999923706055,20.790000915527344,-10.90999984741211,-21.170000076293945,-29.799999237060547,-12.8100004196167,3.1429998874664307,-29.600000381469727,0,0,0,0,0,0,0,0,0,0,0,0,0,8.055009,0,2025-05-31 12:16:36.377928,
269,-58.34000015258789,-48.220001220703125,-62.22999954223633,-76.08000183105469,-80.8499984741211,-83.18000030517578,-89.0199966430664,-36.939998626708984,-14.050000190734863,-49.97999954223633,-18.110000610351562,-30.06999969482422,-68.98999786376953,-44.439998626708984,-15.119999885559082,-50.65999984741211,0,0,0,0,0,0,0,0,0,0,0,0,0,8.055009,0,2025-05-31 12:16:36.377928,
270,-75.91000366210938,-93.69999694824219,-85.54000091552734,-104.0999984741211,-80.9800033569336,-116.5,-120.0,-57.72999954223633,-21.540000915527344,-93.63999938964844,-28.829999923706055,-43.47999954223633,-105.5,-77.48999786376953,-27.770000457763672,-74.48999786376953,0,0,0,0,0,0,0,0,0,0,0,0,0,8.055009,0,2025-05-31 12:16:36.377928,
271,-75.73999786376953,-106.30000305175781,-74.7300033569336,-97.97000122070312,-43.880001068115234,-114.19999694824219,-116.69999694824219,-42.86000061035156,-15.0600004196167,-56.939998626708984,-16.219999313354492,-37.2400016784668,-90.55000305175781,-64.05000305175781,-30.860000610351562,-78.61000061035156,0,0,0,0,0,0,0,0,0,0,0,0,0,8.055009,0,2025-05-31 12:16:36.377928,
272,-65.9800033569336,-80.95999908447266,-38.400001525878906,-66.61000061035156,-21.049999237060547,-105.4000015258789,-112.19999694824219,-37.25,-3.9040000438690186,-62.16999816894531,-22.829999923706055,-39.0,-71.2699966430664,-53.25,-33.720001220703125,-66.16000366210938,0,0,0,0,0,0,0,0,0,0,0,0,0,8.101716,0,2025-05-31 12:16:36.424635,
273,-75.80999755859375,-81.69000244140625,-78.7300033569336,-84.94999694824219,-60.560001373291016,-130.1999969482422,-137.5,-67.75,-30.809999465942383,-57.59000015258789,-46.2400016784668,-54.47999954223633,-66.37999725341797,-55.709999084472656,-46.0,-52.720001220703125,0,0,0,0,0,0,0,0,0,0,0,0,0,8.101716,0,2025-05-31 12:16:36.424635,
274,-86.08000183105469,-85.33999633789062,-113.80000305175781,-109.4000015258789,-90.9000015258789,-144.3000030517578,-148.89999389648438,-82.83999633789062,-50.15999984741211,-21.0,-43.220001220703125,-59.16999816894531,-56.59000015258789,-46.84000015258789,-59.810001373291016,-55.59000015258789,0,0,0,0,0,0,0,0,0,0,0,0,0,8.101716,0,2025-05-31 12:16:36.424635,
275,-91.7699966430664,-78.66999816894531,-91.27999877929688,-118.19999694824219,-98.63999938964844,-146.89999389648438,-153.10000610351562,-97.83000183105469,-46.88999938964844,-77.44000244140625,-51.790000915527344,-64.87999725341797,-60.83000183105469,-39.040000915527344,-63.90999984741211,-68.80999755859375,0,0,0,0,0,0,0,0,0,0,0,0,0,8.101716,0,2025-05-31 12:16:36.424635,
276,-106.0,-93.16000366210938,-108.80000305175781,-144.8000030517578,-117.19999694824219,-151.89999389648438,-158.89999389648438,-113.80000305175781,-71.0,-122.80000305175781,-68.69000244140625,-65.52999877929688,-63.11000061035156,-21.190000534057617,-44.56999969482422,-53.209999084472656,0,0,0,0,0,0,0,0,0,0,0,0,0,8.101716,0,2025-05-31 12:16:36.424635,
277,-112.0999984741211,-94.51000213623047,-134.39999389648438,-147.1999969482422,-112.5,-132.10000610351562,-138.0,-91.31999969482422,-81.45999908447266,-41.81999969482422,-51.20000076293945,-57.869998931884766,-52.310001373291016,-0.7644000053405762,-4.440000057220459,-13.0600004196167,0,0,0,0,0,0,0,0,0,0,0,0,0,8.154368,0,2025-05-31 12:16:36.477287,
278,-119.4000015258789,-87.55999755859375,-124.30000305175781,-133.6999969482422,-103.80000305175781,-129.10000610351562,-135.1999969482422,-87.58000183105469,-53.20000076293945,-18.219999313354492,-47.119998931884766,-73.76000213623047,-68.93000030517578,-14.300000190734863,14.949999809265137,-3.6470000743865967,0,0,0,0,0,0,0,0,0,0,0,0,0,8.154368,0,2025-05-31 12:16:36.477287,
279,-129.39999389648438,-107.0,-138.39999389648438,-155.8000030517578,-119.30000305175781,-156.8000030517578,-159.3000030517578,-115.69999694824219,-41.38999938964844,-79.08000183105469,-54.93000030517578,-75.12000274658203,-76.13999938964844,-20.290000915527344,2.747999906539917,-18.780000686645508,0,0,0,0,0,0,0,0,0,0,0,0,0,8.154368,0,2025-05-31 12:16:36.477287,
280,-98.26000213623047,-93.62999725341797,-141.1999969482422,-159.8000030517578,-103.0999984741211,-142.60000610351562,-141.1999969482422,-94.94999694824219,-33.400001525878906,-52.04999923706055,-21.010000228881836,-28.940000534057617,-39.88999938964844,2.2950000762939453,2.259999990463257,-9.260000228881836,0,0,0,0,0,0,0,0,0,0,0,0,0,8.154368,0,2025-05-31 12:16:36.477287,
281,-52.38999938964844,-55.709999084472656,-110.9000015258789,-130.60000610351562,-66.79000091552734,-111.80000305175781,-111.5,-62.11000061035156,-8.571999549865723,-17.149999618530273,7.0329999923706055,-2.500999927520752,-31.809999465942383,-4.320000171661377,19.100000381469727,9.310999870300293,0,0,0,0,0,0,0,0,0,0,0,0,0,8.154368,0,2025-05-31 12:16:36.477287,
282,-39.25,-65.12999725341797,-104.9000015258789,-121.5999984741211,-57.7599983215332,-109.0,-109.9000015258789,-67.16000366210938,2.6480000019073486,-50.0,3.3889999389648438,-4.775000095367432,-45.959999084472656,-20.780000686645508,22.790000915527344,3.502000093460083,0,0,0,0,0,0,0,0,0,0,0,0,0,8.193044,0,2025-05-31 12:16:36.515963,
283,-22.729999542236328,-61.36000061035156,-82.97000122070312,-94.41000366210938,-38.59000015258789,-76.83999633789062,-78.33000183105469,-42.900001525878906,8.03499984741211,-17.09000015258789,6.011000156402588,11.460000038146973,-19.600000381469727,-3.8499999046325684,16.3700008392334,-9.300999641418457,0,0,0,0,0,0,0,0,0,0,0,0,0,8.193044,0,2025-05-31 12:16:36.515963,
284,2.562000036239624,-15.3100004196167,-28.84000015258789,-40.310001373291016,-5.35099983215332,-29.510000228881836,-32.40999984741211,-9.045999526977539,13.5600004196167,26.6299991607666,5.289999961853027,22.940000534057617,2.7249999046325684,6.156000137329102,16.959999084472656,-11.789999961853027,0,0,0,0,0,0,0,0,0,0,0,0,0,8.193044,0,2025-05-31 12:16:36.515963,
285,6.802000045776367,-9.562999725341797,-15.25,-36.08000183105469,3.746999979019165,-24.670000076293945,-29.959999084472656,-36.0,8.748000144958496,-21.600000381469727,11.579999923706055,25.75,-1.8849999904632568,6.109000205993652,28.459999084472656,-6.005000114440918,0,0,0,0,0,0,0,0,0,0,0,0,0,8.193044,0,2025-05-31 12:16:36.515963,
286,20.040000915527344,-20.579999923706055,-19.6200008392334,-49.209999084472656,9.857999801635742,-16.079999923706055,-24.260000228881836,-52.86000061035156,21.010000228881836,-33.029998779296875,43.650001525878906,50.34000015258789,13.479999542236328,26.469999313354492,46.61000061035156,10.90999984741211,0,0,0,0,0,0,0,0,0,0,0,0,0,8.193044,0,2025-05-31 12:16:36.515963,
287,47.849998474121094,3.822999954223633,2.256999969482422,-20.899999618530273,26.270000457763672,12.210000038146973,3.936000108718872,-24.790000915527344,50.13999938964844,-12.319999694824219,54.66999816894531,66.44999694824219,27.520000457763672,31.8700008392334,54.849998474121094,26.790000915527344,0,0,0,0,0,0,0,0,0,0,0,0,0,8.242708,0,2025-05-31 12:16:36.565627,
288,51.060001373291016,7.447000026702881,9.85099983215332,-9.472999572753906,30.719999313354492,8.291999816894531,0.03020000085234642,-29.739999771118164,54.11000061035156,-50.97999954223633,42.31999969482422,55.369998931884766,19.200000762939453,18.579999923706055,47.47999954223633,28.600000381469727,0,0,0,0,0,0,0,0,0,0,0,0,0,8.242708,0,2025-05-31 12:16:36.565627,
289,39.4900016784668,-7.511000156402588,-1.4809999465942383,-21.540000915527344,28.06999969482422,-6.658999919891357,-15.859999656677246,-39.36000061035156,38.31999969482422,-15.369999885559082,60.25,60.959999084472656,43.220001220703125,45.77000045776367,50.08000183105469,43.13999938964844,0,0,0,0,0,0,0,0,0,0,0,0,0,8.242708,0,2025-05-31 12:16:36.565627,
290,47.81999969482422,28.170000076293945,8.555999755859375,2.1040000915527344,34.310001373291016,11.369999885559082,4.488999843597412,5.736999988555908,44.91999816894531,88.58999633789062,99.9000015258789,99.37000274658203,102.30000305175781,98.69000244140625,84.05999755859375,91.0999984741211,0,0,0,0,0,0,0,0,0,0,0,0,0,8.242708,0,2025-05-31 12:16:36.565627,
291,77.36000061035156,79.88999938964844,38.099998474121094,30.889999389648438,50.61000061035156,38.15999984741211,31.280000686645508,33.4900016784668,68.4800033569336,79.0199966430664,110.80000305175781,124.5,122.19999694824219,107.19999694824219,127.9000015258789,133.3000030517578,0,0,0,0,0,0,0,0,0,0,0,0,0,8.242708,0,2025-05-31 12:16:36.565627,
292,92.2300033569336,76.73999786376953,56.130001068115234,25.889999389648438,61.029998779296875,42.040000915527344,29.690000534057617,2.9059998989105225,69.12000274658203,25.260000228881836,91.4800033569336,108.4000015258789,87.5199966430664,74.12999725341797,142.5,124.5999984741211,0,0,0,0,0,0,0,0,0,0,0,0,0,8.295843,0,2025-05-31 12:16:36.618762,
293,71.9800033569336,46.209999084472656,51.619998931884766,11.4399995803833,53.68000030517578,33.86000061035156,18.020000457763672,-27.450000762939453,60.40999984741211,26.15999984741211,89.25,92.08000183105469,59.4900016784668,50.97999954223633,128.10000610351562,81.19999694824219,0,0,0,0,0,0,0,0,0,0,0,0,0,8.295843,0,2025-05-31 12:16:36.618762,
294,59.72999954223633,40.209999084472656,43.939998626708984,2.7339999675750732,51.68000030517578,34.97999954223633,18.709999084472656,-36.790000915527344,70.05999755859375,10.8100004196167,102.9000015258789,94.31999969482422,58.369998931884766,50.099998474121094,110.0999984741211,51.93000030517578,0,0,0,0,0,0,0,0,0,0,0,0,0,8.295843,0,2025-05-31 12:16:36.618762,
295,67.36000061035156,39.970001220703125,38.68000030517578,-1.6790000200271606,54.33000183105469,34.22999954223633,15.760000228881836,-46.81999969482422,61.540000915527344,-3.6449999809265137,87.04000091552734,75.8499984741211,48.52000045776367,50.34000015258789,88.16000366210938,51.83000183105469,0,0,0,0,0,0,0,0,0,0,0,0,0,8.295843,0,2025-05-31 12:16:36.618762,
296,50.459999084472656,22.420000076293945,26.610000610351562,-8.739999771118164,36.439998626708984,17.6299991607666,-3.507999897003174,-56.790000915527344,38.849998474121094,22.100000381469727,71.18000030517578,51.709999084472656,35.04999923706055,45.810001373291016,61.45000076293945,58.41999816894531,0,0,0,0,0,0,0,0,0,0,0,0,0,8.295843,0,2025-05-31 12:16:36.618762,
297,36.560001373291016,19.149999618530273,32.0099983215332,-10.930000305175781,36.25,17.239999771118164,-4.269999980926514,-51.970001220703125,59.15999984741211,35.119998931884766,84.98999786376953,58.20000076293945,44.970001220703125,48.7400016784668,49.220001220703125,60.900001525878906,0,0,0,0,0,0,0,0,0,0,0,0,0,8.341638,0,2025-05-31 12:16:36.664557,
298,58.720001220703125,32.970001220703125,58.56999969482422,8.932000160217285,69.83999633789062,40.36000061035156,15.970000267028809,-39.2599983215332,79.69999694824219,13.010000228881836,74.98999786376953,59.099998474121094,53.06999969482422,53.689998626708984,49.06999969482422,64.4000015258789,0,0,0,0,0,0,0,0,0,0,0,0,0,8.341638,0,2025-05-31 12:16:36.664557,
299,65.56999969482422,27.510000228881836,62.939998626708984,22.049999237060547,75.0,43.470001220703125,13.880000114440918,-35.66999816894531,56.939998626708984,-18.290000915527344,54.33000183105469,47.529998779296875,46.810001373291016,50.97999954223633,49.08000183105469,60.27000045776367,0,0,0,0,0,0,0,0,0,0,0,0,0,8.341638,0,2025-05-31 12:16:36.664557,
300,52.7400016784668,24.709999084472656,49.310001373291016,15.920000076293945,53.029998779296875,35.029998779296875,6.495999813079834,-29.469999313354492,53.849998474121094,-7.458000183105469,69.58999633789062,56.93000030517578,55.439998626708984,57.970001220703125,57.20000076293945,45.90999984741211,0,0,0,0,0,0,0,0,0,0,0,0,0,8.341638,0,2025-05-31 12:16:36.664557,
301,49.31999969482422,44.29999923706055,46.91999816894531,17.350000381469727,43.939998626708984,37.22999954223633,12.260000228881836,-24.110000610351562,56.7599983215332,37.720001220703125,62.040000915527344,54.720001220703125,62.470001220703125,70.44999694824219,62.470001220703125,35.400001525878906,0,0,0,0,0,0,0,0,0,0,0,0,0,8.341638,0,2025-05-31 12:16:36.664557,
302,26.920000076293945,40.31999969482422,35.029998779296875,6.668000221252441,27.979999542236328,18.989999771118164,-4.857999801635742,-42.630001068115234,16.389999389648438,38.84000015258789,24.649999618530273,32.029998779296875,48.0099983215332,63.060001373291016,45.79999923706055,31.1299991607666,0,0,0,0,0,0,0,0,0,0,0,0,0,8.384601,0,2025-05-31 12:16:36.707520,
303,2.265000104904175,19.600000381469727,7.610000133514404,-14.899999618530273,9.013999938964844,-3.0739998817443848,-23.010000228881836,-50.25,5.241000175476074,18.489999771118164,31.459999084472656,41.15999984741211,52.47999954223633,57.099998474121094,33.7599983215332,38.11000061035156,0,0,0,0,0,0,0,0,0,0,0,0,0,8.384601,0,2025-05-31 12:16:36.707520,
304,17.510000228881836,29.510000228881836,-0.07100000232458115,-3.990999937057495,14.649999618530273,10.710000038146973,-6.366000175476074,-25.190000534057617,29.81999969482422,21.1299991607666,51.11000061035156,61.2400016784668,72.55999755859375,66.62000274658203,51.08000183105469,63.119998931884766,0,0,0,0,0,0,0,0,0,0,0,0,0,8.384601,0,2025-05-31 12:16:36.707520,
305,33.58000183105469,41.130001068115234,11.119999885559082,11.079999923706055,24.34000015258789,20.6299991607666,2.990000009536743,-16.969999313354492,17.770000457763672,8.845000267028809,41.93000030517578,51.400001525878906,60.04999923706055,60.7400016784668,69.94999694824219,78.51000213623047,0,0,0,0,0,0,0,0,0,0,0,0,0,8.384601,0,2025-05-31 12:16:36.707520,
306,28.459999084472656,23.700000762939453,10.079999923706055,0.460099995136261,27.239999771118164,6.755000114440918,-8.694000244140625,-33.290000915527344,19.670000076293945,-1.3550000190734863,49.33000183105469,45.45000076293945,35.20000076293945,45.810001373291016,66.77999877929688,64.94999694824219,0,0,0,0,0,0,0,0,0,0,0,0,0,8.384601,0,2025-05-31 12:16:36.707520,
307,36.25,9.597999572753906,7.578999996185303,0.5385000109672546,38.880001068115234,9.645000457763672,-4.2220001220703125,-38.290000915527344,56.380001068115234,17.450000762939453,65.66000366210938,53.27000045776367,33.16999816894531,45.02000045776367,55.31999969482422,45.95000076293945,0,0,0,0,0,0,0,0,0,0,0,0,0,8.430141,0,2025-05-31 12:16:36.753060,
308,50.15999984741211,18.93000030517578,24.260000228881836,10.760000228881836,46.720001220703125,26.1299991607666,11.380000114440918,-34.22999954223633,56.63999938964844,43.279998779296875,60.86000061035156,51.54999923706055,41.029998779296875,45.08000183105469,47.22999954223633,35.22999954223633,0,0,0,0,0,0,0,0,0,0,0,0,0,8.430141,0,2025-05-31 12:16:36.753060,
309,53.29999923706055,41.40999984741211,35.650001525878906,8.876999855041504,39.279998779296875,34.939998626708984,21.600000381469727,-32.439998626708984,55.11000061035156,63.72999954223633,64.98999786376953,56.369998931884766,50.68000030517578,43.06999969482422,40.720001220703125,28.8799991607666,0,0,0,0,0,0,0,0,0,0,0,0,0,8.430141,0,2025-05-31 12:16:36.753060,
310,64.08999633789062,59.130001068115234,38.209999084472656,13.720000267028809,37.91999816894531,46.95000076293945,34.599998474121094,-33.63999938964844,73.0,34.720001220703125,65.41999816894531,62.90999984741211,51.22999954223633,39.33000183105469,33.47999954223633,27.31999969482422,0,0,0,0,0,0,0,0,0,0,0,0,0,8.430141,0,2025-05-31 12:16:36.753060,
311,68.2300033569336,50.43000030517578,47.77000045776367,21.329999923706055,40.9900016784668,53.040000915527344,38.689998626708984,-38.75,42.630001068115234,-10.380000114440918,28.260000228881836,40.63999938964844,31.530000686645508,23.15999984741211,20.899999618530273,22.8700008392334,0,0,0,0,0,0,0,0,0,0,0,0,0,8.430141,0,2025-05-31 12:16:36.753060,
312,42.08000183105469,29.75,40.22999954223633,15.65999984741211,29.81999969482422,42.970001220703125,28.56999969482422,-34.779998779296875,16.3700008392334,26.81999969482422,4.3979997634887695,22.649999618530273,26.40999984741211,17.579999923706055,7.888999938964844,18.389999389648438,0,0,0,0,0,0,0,0,0,0,0,0,0,8.479268,0,2025-05-31 12:16:36.802187,
313,34.0099983215332,34.9900016784668,40.45000076293945,24.899999618530273,41.619998931884766,45.790000915527344,34.15999984741211,-22.079999923706055,52.84000015258789,46.060001373291016,31.809999465942383,46.34000015258789,45.41999816894531,31.829999923706055,12.130000114440918,26.940000534057617,0,0,0,0,0,0,0,0,0,0,0,0,0,8.479268,0,2025-05-31 12:16:36.802187,
314,64.62999725341797,48.22999954223633,83.41000366210938,47.81999969482422,85.55000305175781,64.36000061035156,50.970001220703125,-21.34000015258789,67.06999969482422,-25.6200008392334,49.650001525878906,64.98999786376953,41.75,27.479999542236328,28.059999465942383,31.860000610351562,0,0,0,0,0,0,0,0,0,0,0,0,0,8.479268,0,2025-05-31 12:16:36.802187,
315,67.55000305175781,34.5099983215332,96.12000274658203,49.02000045776367,88.62999725341797,69.69999694824219,51.060001373291016,-19.139999389648438,45.349998474121094,-17.8799991607666,23.200000762939453,44.11000061035156,15.59000015258789,2.575000047683716,25.309999465942383,12.65999984741211,0,0,0,0,0,0,0,0,0,0,0,0,0,8.479268,0,2025-05-31 12:16:36.802187,
316,42.29999923706055,20.06999969482422,59.869998931884766,45.31999969482422,52.11000061035156,67.37999725341797,48.08000183105469,4.803999900817871,43.11000061035156,61.2400016784668,3.9189999103546143,24.889999389648438,-0.4909999966621399,-12.359999656677246,-1.2430000305175781,-22.360000610351562,0,0,0,0,0,0,0,0,0,0,0,0,0,8.479268,0,2025-05-31 12:16:36.802187,
317,39.150001525878906,18.780000686645508,39.400001525878906,43.81999969482422,31.559999465942383,62.75,43.77000045776367,16.440000534057617,27.399999618530273,37.77000045776367,-1.805999994277954,17.15999984741211,-15.229999542236328,-19.139999389648438,-31.75,-58.79999923706055,0,0,0,0,0,0,0,0,0,0,0,0,0,8.52085,0,2025-05-31 12:16:36.843769,
318,29.350000381469727,3.7339999675750732,24.280000686645508,16.280000686645508,12.430000305175781,44.79999923706055,25.649999618530273,-4.427999973297119,-1.690000057220459,-12.300000190734863,-35.68000030517578,-8.029000282287598,-25.139999389648438,-18.440000534057617,-54.08000183105469,-76.05000305175781,0,0,0,0,0,0,0,0,0,0,0,0,0,8.52085,0,2025-05-31 12:16:36.843769,
319,2.9089999198913574,-7.020999908447266,21.75,-2.443000078201294,0.8176000118255615,38.040000915527344,21.860000610351562,-19.18000030517578,0.5530999898910522,6.830999851226807,-54.54999923706055,-22.579999923706055,-8.055999755859375,-0.13249999284744263,-53.209999084472656,-54.45000076293945,0,0,0,0,0,0,0,0,0,0,0,0,0,8.52085,0,2025-05-31 12:16:36.843769,
320,6.01200008392334,7.879000186920166,53.90999984741211,17.68000030517578,21.399999618530273,52.27000045776367,35.47999954223633,-13.220000267028809,14.930000305175781,13.020000457763672,-17.190000534057617,-3.5409998893737793,13.140000343322754,18.0,-23.959999084472656,-15.130000114440918,0,0,0,0,0,0,0,0,0,0,0,0,0,8.52085,0,2025-05-31 12:16:36.843769,
321,25.68000030517578,19.40999984741211,55.79999923706055,30.760000228881836,34.599998474121094,52.4900016784668,32.9900016784668,-7.993000030517578,25.75,6.105999946594238,2.7139999866485596,1.687000036239624,8.784000396728516,16.59000015258789,-2.0959999561309814,0.19709999859333038,0,0,0,0,0,0,0,0,0,0,0,0,0,8.52085,0,2025-05-31 12:16:36.843769,
322,22.09000015258789,14.0,21.700000762939453,19.260000228881836,13.949999809265137,30.989999771118164,13.260000228881836,-8.12600040435791,9.057999610900879,20.530000686645508,-29.540000915527344,-24.110000610351562,-12.390000343322754,-1.9329999685287476,-16.559999465942383,-18.190000534057617,0,0,0,0,0,0,0,0,0,0,0,0,0,8.575723,0,2025-05-31 12:16:36.898642,
323,-2.98799991607666,2.7230000495910645,-0.7405999898910522,2.253000020980835,-22.020000457763672,9.088000297546387,-7.718999862670898,-11.1899995803833,-45.25,25.8799991607666,-46.43000030517578,-37.06999969482422,-28.059999465942383,-22.18000030517578,-43.220001220703125,-47.13999938964844,0,0,0,0,0,0,0,0,0,0,0,0,0,8.575723,0,2025-05-31 12:16:36.898642,
324,-19.209999084472656,-1.3880000114440918,-12.130000114440918,-8.604000091552734,-30.15999984741211,3.7660000324249268,-13.579999923706055,-10.989999771118164,-40.54999923706055,34.560001373291016,-27.860000610351562,-19.280000686645508,-23.440000534057617,-21.299999237060547,-48.209999084472656,-58.34000015258789,0,0,0,0,0,0,0,0,0,0,0,0,0,8.575723,0,2025-05-31 12:16:36.898642,
325,-2.621000051498413,9.366999626159668,-0.5386000275611877,0.05820000171661377,-4.644999980926514,14.680000305175781,-3.561000108718872,-1.7829999923706055,17.139999389648438,27.639999389648438,-13.09000015258789,5.191999912261963,-10.84000015258789,-5.090000152587891,-31.280000686645508,-44.0,0,0,0,0,0,0,0,0,0,0,0,0,0,8.575723,0,2025-05-31 12:16:36.898642,
326,21.690000534057617,11.100000381469727,4.718999862670898,-1.6640000343322754,-15.420000076293945,15.789999961853027,-4.559999942779541,-5.383999824523926,1.593000054359436,-18.190000534057617,-4.28000020980835,17.389999389648438,-13.680000305175781,-3.9570000171661377,-10.640000343322754,-21.049999237060547,0,0,0,0,0,0,0,0,0,0,0,0,0,8.575723,0,2025-05-31 12:16:36.898642,
327,27.670000076293945,-4.785999774932861,-14.979999542236328,-23.18000030517578,-28.959999084472656,9.317000389099121,-10.300000190734863,-26.31999969482422,-26.59000015258789,-33.209999084472656,17.729999542236328,24.899999618530273,-19.450000762939453,-8.928000450134277,6.414000034332275,-2.197000026702881,0,0,0,0,0,0,0,0,0,0,0,0,0,8.623406,0,2025-05-31 12:16:36.946325,
328,30.93000030517578,-6.315000057220459,12.899999618530273,-0.14390000700950623,15.149999618530273,21.280000686645508,1.3459999561309814,-22.1299991607666,18.40999984741211,-1.7899999618530273,42.70000076293945,44.279998779296875,-1.347000002861023,10.760000228881836,27.530000686645508,16.649999618530273,0,0,0,0,0,0,0,0,0,0,0,0,0,8.623406,0,2025-05-31 12:16:36.946325,
329,35.18000030517578,12.470000267028809,37.13999938964844,34.11000061035156,-3.13700008392334,32.220001220703125,9.017000198364258,5.8379998207092285,32.36000061035156,24.6299991607666,53.650001525878906,65.95999908447266,28.229999542236328,38.88999938964844,52.529998779296875,35.560001373291016,0,0,0,0,0,0,0,0,0,0,0,0,0,8.623406,0,2025-05-31 12:16:36.946325,
330,36.130001068115234,25.989999771118164,-14.720000267028809,-2.884000062942505,-71.30000305175781,23.049999237060547,-0.8101999759674072,-2.812999963760376,-6.316999912261963,28.899999618530273,50.54999923706055,58.220001220703125,31.030000686645508,37.150001525878906,60.619998931884766,41.869998931884766,0,0,0,0,0,0,0,0,0,0,0,0,0,8.623406,0,2025-05-31 12:16:36.946325,
331,34.25,18.260000228881836,-17.209999084472656,-29.0,-23.610000610351562,16.969999313354492,-7.574999809265137,-35.290000915527344,-7.988999843597412,21.5,32.65999984741211,23.309999465942383,4.909999847412109,11.5600004196167,35.970001220703125,25.389999389648438,0,0,0,0,0,0,0,0,0,0,0,0,0,8.623406,0,2025-05-31 12:16:36.946325,
